File Version;BWSpec4.11_1
Date;2022-04-12 15:06:55
title;ZAFB
model;BRC112P-V
c code;ZAFB
operator;
port1;0
baud1;3
pixel_start;0
pixel_end;2047
step;1
units;1
bkcolor;16777215
show_mode;0
data_mode;0
pixel_mode;0
intigration times(ms);1
average number;1
time_multiply;1
spectrometer_type;63
yaxis;1
yaxis_min;0
yaxis_max;65535
xaxis;1
xaxis_min;73
xaxis_max;1955
irrands_DispWLMin;100
irrands_DispWLMax;1000
yaxis_min_6;0
yaxis_max_6;65535
irradiance_unit;0
Color_Data_Flag;0
Color_StartWL;400
Color_EndWL;700
Color_IncWL;10
power_unit_index;3
photometric_index;0
Illuminant_index;3
observer_index;0
lab_l;0
lab_a;0
lab_b;0
radiometric_flag;0
coefs_a0;317.794384991284
coefs_a1;0.443577830204049
coefs_a2;-3.30173878859696E-05
coefs_a3;-1.17603665341136E-09
coefs_b0;-724.425258341245
coefs_b1;2.29920846412642
coefs_b2;-0.000220172293984522
coefs_b3;4.38131310698166E-07
coefs_r0;1
coefs_r1;0
coefs_r2;0
coefs_r3;0
coefs_j0;1
coefs_j1;0
coefs_j2;0
coefs_j3;0
enable_coefs_r;0
all_data_save;1
select_option;-1
interval_time;1
pixel_num;2048
sel_pixel_start;0
sel_pixel_end;2016
sel_pixel_delta;1
dark_compensate;0
dark_compensate_value_1;0
dark_compensate_value_2;0
dark_compensate_value_3;0
monitor pixel_0;0
monitor pixel_1;0
monitor pixel_2;0
monitor pixel_3;0
monitor pixel_4;0
monitor pixel_5;0
vertical_select_flag;0
vertical_line3;0
vertical_line4;0
vertical_line3_wv;317.794384991284
vertical_line4_wv;317.794384991284
vertical_line_flag;0
vertical_line_ratio;0
laser_wavelength;0
laser_powerlevel;0
overlay_js;0
Relative Intensity Correction Flag;0
Pixel;Wavelength;Wavenumber;Raman Shift;Dark;Reference;Raw data #1;Dark Subtracted #1;%TR #1;Absorbance #1;Irradiance (W/cm^2/nm) #1;
0;   ;   ;   ;0.0000;0.0000;0.0000;0.0000;0.0000;0.0000;0.0000;
1;   ;   ;   ;0.0000;0.0000;0.0000;0.0000;0.0000;0.0000;0.0000;
2;   ;   ;   ;0.0000;0.0000;0.0000;0.0000;0.0000;0.0000;0.0000;
3;   ;   ;   ;0.0000;0.0000;0.0000;0.0000;0.0000;0.0000;0.0000;
4;   ;   ;   ;0.0000;0.0000;0.0000;0.0000;0.0000;0.0000;0.0000;
5;   ;   ;   ;0.0000;0.0000;0.0000;0.0000;0.0000;0.0000;0.0000;
6;   ;   ;   ;0.0000;0.0000;0.0000;0.0000;0.0000;0.0000;0.0000;
7;   ;   ;   ;0.0000;0.0000;0.0000;0.0000;0.0000;0.0000;0.0000;
8;   ;   ;   ;0.0000;0.0000;0.0000;0.0000;0.0000;0.0000;0.0000;
9;   ;   ;   ;0.0000;0.0000;0.0000;0.0000;0.0000;0.0000;0.0000;
10;   ;   ;   ;0.0000;0.0000;0.0000;0.0000;0.0000;0.0000;0.0000;
11;   ;   ;   ;0.0000;0.0000;0.0000;0.0000;0.0000;0.0000;0.0000;
12;   ;   ;   ;0.0000;0.0000;0.0000;0.0000;0.0000;0.0000;0.0000;
13;   ;   ;   ;0.0000;0.0000;0.0000;0.0000;0.0000;0.0000;0.0000;
14;   ;   ;   ;0.0000;0.0000;0.0000;0.0000;0.0000;0.0000;0.0000;
15;   ;   ;   ;0.0000;0.0000;0.0000;0.0000;0.0000;0.0000;0.0000;
16;   ;   ;   ;0.0000;0.0000;0.0000;0.0000;0.0000;0.0000;0.0000;
17;   ;   ;   ;0.0000;0.0000;0.0000;0.0000;0.0000;0.0000;0.0000;
18;   ;   ;   ;0.0000;0.0000;0.0000;0.0000;0.0000;0.0000;0.0000;
19;   ;   ;   ;0.0000;0.0000;0.0000;0.0000;0.0000;0.0000;0.0000;
20;   ;   ;   ;0.0000;0.0000;0.0000;0.0000;0.0000;0.0000;0.0000;
21;   ;   ;   ;0.0000;0.0000;0.0000;0.0000;0.0000;0.0000;0.0000;
22;   ;   ;   ;0.0000;0.0000;0.0000;0.0000;0.0000;0.0000;0.0000;
23;   ;   ;   ;0.0000;0.0000;0.0000;0.0000;0.0000;0.0000;0.0000;
24;   ;   ;   ;0.0000;0.0000;0.0000;0.0000;0.0000;0.0000;0.0000;
25;   ;   ;   ;0.0000;0.0000;0.0000;0.0000;0.0000;0.0000;0.0000;
26;   ;   ;   ;0.0000;0.0000;0.0000;0.0000;0.0000;0.0000;0.0000;
27;   ;   ;   ;0.0000;0.0000;0.0000;0.0000;0.0000;0.0000;0.0000;
28;   ;   ;   ;0.0000;0.0000;0.0000;0.0000;0.0000;0.0000;0.0000;
29;   ;   ;   ;0.0000;0.0000;0.0000;0.0000;0.0000;0.0000;0.0000;
30;   ;   ;   ;0.0000;0.0000;0.0000;0.0000;0.0000;0.0000;0.0000;
31;   ;   ;   ;0.0000;0.0000;0.0000;0.0000;0.0000;0.0000;0.0000;
32;   ;   ;   ;0.0000;0.0000;0.0000;0.0000;0.0000;0.0000;0.0000;
33;   ;   ;   ;0.0000;0.0000;0.0000;0.0000;0.0000;0.0000;0.0000;
34;   ;   ;   ;0.0000;0.0000;0.0000;0.0000;0.0000;0.0000;0.0000;
35;   ;   ;   ;0.0000;0.0000;0.0000;0.0000;0.0000;0.0000;0.0000;
36;   ;   ;   ;0.0000;0.0000;0.0000;0.0000;0.0000;0.0000;0.0000;
37;   ;   ;   ;0.0000;0.0000;0.0000;0.0000;0.0000;0.0000;0.0000;
38;   ;   ;   ;0.0000;0.0000;0.0000;0.0000;0.0000;0.0000;0.0000;
39;   ;   ;   ;0.0000;0.0000;0.0000;0.0000;0.0000;0.0000;0.0000;
40;   ;   ;   ;0.0000;0.0000;0.0000;0.0000;0.0000;0.0000;0.0000;
41;   ;   ;   ;0.0000;0.0000;0.0000;0.0000;0.0000;0.0000;0.0000;
42;   ;   ;   ;0.0000;0.0000;0.0000;0.0000;0.0000;0.0000;0.0000;
43;   ;   ;   ;0.0000;0.0000;0.0000;0.0000;0.0000;0.0000;0.0000;
44;   ;   ;   ;0.0000;0.0000;0.0000;0.0000;0.0000;0.0000;0.0000;
45;   ;   ;   ;0.0000;0.0000;0.0000;0.0000;0.0000;0.0000;0.0000;
46;   ;   ;   ;0.0000;0.0000;0.0000;0.0000;0.0000;0.0000;0.0000;
47;   ;   ;   ;0.0000;0.0000;0.0000;0.0000;0.0000;0.0000;0.0000;
48;   ;   ;   ;0.0000;0.0000;0.0000;0.0000;0.0000;0.0000;0.0000;
49;   ;   ;   ;0.0000;0.0000;0.0000;0.0000;0.0000;0.0000;0.0000;
50;   ;   ;   ;0.0000;0.0000;0.0000;0.0000;0.0000;0.0000;0.0000;
51;   ;   ;   ;0.0000;0.0000;0.0000;0.0000;0.0000;0.0000;0.0000;
52;   ;   ;   ;0.0000;0.0000;0.0000;0.0000;0.0000;0.0000;0.0000;
53;   ;   ;   ;0.0000;0.0000;0.0000;0.0000;0.0000;0.0000;0.0000;
54;   ;   ;   ;0.0000;0.0000;0.0000;0.0000;0.0000;0.0000;0.0000;
55;   ;   ;   ;0.0000;0.0000;0.0000;0.0000;0.0000;0.0000;0.0000;
56;   ;   ;   ;0.0000;0.0000;0.0000;0.0000;0.0000;0.0000;0.0000;
57;   ;   ;   ;0.0000;0.0000;0.0000;0.0000;0.0000;0.0000;0.0000;
58;   ;   ;   ;0.0000;0.0000;0.0000;0.0000;0.0000;0.0000;0.0000;
59;   ;   ;   ;0.0000;0.0000;0.0000;0.0000;0.0000;0.0000;0.0000;
60;   ;   ;   ;0.0000;0.0000;0.0000;0.0000;0.0000;0.0000;0.0000;
61;   ;   ;   ;0.0000;0.0000;0.0000;0.0000;0.0000;0.0000;0.0000;
62;   ;   ;   ;0.0000;0.0000;0.0000;0.0000;0.0000;0.0000;0.0000;
63;   ;   ;   ;0.0000;0.0000;0.0000;0.0000;0.0000;0.0000;0.0000;
64;   ;   ;   ;0.0000;0.0000;0.0000;0.0000;0.0000;0.0000;0.0000;
65;   ;   ;   ;0.0000;0.0000;0.0000;0.0000;0.0000;0.0000;0.0000;
66;   ;   ;   ;0.0000;0.0000;0.0000;0.0000;0.0000;0.0000;0.0000;
67;   ;   ;   ;0.0000;0.0000;0.0000;0.0000;0.0000;0.0000;0.0000;
68;   ;   ;   ;0.0000;0.0000;0.0000;0.0000;0.0000;0.0000;0.0000;
69;   ;   ;   ;0.0000;0.0000;0.0000;0.0000;0.0000;0.0000;0.0000;
70;   ;   ;   ;0.0000;0.0000;0.0000;0.0000;0.0000;0.0000;0.0000;
71;   ;   ;   ;0.0000;0.0000;0.0000;0.0000;0.0000;0.0000;0.0000;
72;   ;   ;   ;0.0000;0.0000;0.0000;0.0000;0.0000;0.0000;0.0000;
73;350.00;28571.50;-28571.50;0.0000;0.0000;0.0000;0.0000;0.0000;0.0000;0.0000;
74;350.44;28535.73;-28535.73;0.0000;0.0000;0.0000;0.0000;0.0000;0.0000;0.0000;
75;350.88;28500.06;-28500.06;0.0000;0.0000;0.0000;0.0000;0.0000;0.0000;0.0000;
76;351.32;28464.48;-28464.48;0.0000;0.0000;0.0000;0.0000;0.0000;0.0000;0.0000;
77;351.75;28428.99;-28428.99;0.0000;0.0000;0.0000;0.0000;0.0000;0.0000;0.0000;
78;352.19;28393.60;-28393.60;0.0000;0.0000;0.0000;0.0000;0.0000;0.0000;0.0000;
79;352.63;28358.30;-28358.30;0.0000;0.0000;0.0000;0.0000;0.0000;0.0000;0.0000;
80;353.07;28323.10;-28323.10;0.0000;0.0000;0.0000;0.0000;0.0000;0.0000;0.0000;
81;353.51;28287.99;-28287.99;0.0000;0.0000;0.0000;0.0000;0.0000;0.0000;0.0000;
82;353.95;28252.97;-28252.97;0.0000;0.0000;0.0000;0.0000;0.0000;0.0000;0.0000;
83;354.38;28218.04;-28218.04;0.0000;0.0000;0.0000;0.0000;0.0000;0.0000;0.0000;
84;354.82;28183.20;-28183.20;0.0000;0.0000;0.0000;0.0000;0.0000;0.0000;0.0000;
85;355.26;28148.46;-28148.46;0.0000;0.0000;0.0000;0.0000;0.0000;0.0000;0.0000;
86;355.70;28113.81;-28113.81;0.0000;0.0000;0.0000;0.0000;0.0000;0.0000;0.0000;
87;356.13;28079.24;-28079.24;0.0000;0.0000;0.0000;0.0000;0.0000;0.0000;0.0000;
88;356.57;28044.77;-28044.77;0.0000;0.0000;0.0000;0.0000;0.0000;0.0000;0.0000;
89;357.01;28010.38;-28010.38;0.0000;0.0000;0.0000;0.0000;0.0000;0.0000;0.0000;
90;357.45;27976.09;-27976.09;0.0000;0.0000;0.0000;0.0000;0.0000;0.0000;0.0000;
91;357.89;27941.88;-27941.88;0.0000;0.0000;0.0000;0.0000;0.0000;0.0000;0.0000;
92;358.32;27907.77;-27907.77;0.0000;0.0000;0.0000;0.0000;0.0000;0.0000;0.0000;
93;358.76;27873.74;-27873.74;0.0000;0.0000;0.0000;0.0000;0.0000;0.0000;0.0000;
94;359.20;27839.80;-27839.80;0.0000;0.0000;0.0000;0.0000;0.0000;0.0000;0.0000;
95;359.64;27805.95;-27805.95;0.0000;0.0000;0.0000;0.0000;0.0000;0.0000;0.0000;
96;360.07;27772.18;-27772.18;0.0000;0.0000;0.0000;0.0000;0.0000;0.0000;0.0000;
97;360.51;27738.50;-27738.50;0.0000;0.0000;0.0000;0.0000;0.0000;0.0000;0.0000;
98;360.95;27704.91;-27704.91;0.0000;0.0000;0.0000;0.0000;0.0000;0.0000;0.0000;
99;361.38;27671.41;-27671.41;0.0000;0.0000;0.0000;0.0000;0.0000;0.0000;0.0000;
100;361.82;27637.99;-27637.99;0.0000;0.0000;0.0000;0.0000;0.0000;0.0000;0.0000;
101;362.26;27604.66;-27604.66;0.0000;0.0000;0.0000;0.0000;0.0000;0.0000;0.0000;
102;362.69;27571.41;-27571.41;0.0000;0.0000;0.0000;0.0000;0.0000;0.0000;0.0000;
103;363.13;27538.25;-27538.25;0.0000;0.0000;0.0000;0.0000;0.0000;0.0000;0.0000;
104;363.57;27505.17;-27505.17;0.0000;0.0000;0.0000;0.0000;0.0000;0.0000;0.0000;
105;364.00;27472.17;-27472.17;0.0000;0.0000;0.0000;0.0000;0.0000;0.0000;0.0000;
106;364.44;27439.26;-27439.26;0.0000;0.0000;0.0000;0.0000;0.0000;0.0000;0.0000;
107;364.88;27406.44;-27406.44;0.0000;0.0000;0.0000;0.0000;0.0000;0.0000;0.0000;
108;365.31;27373.70;-27373.70;0.0000;0.0000;0.0000;0.0000;0.0000;0.0000;0.0000;
109;365.75;27341.04;-27341.04;0.0000;0.0000;0.0000;0.0000;0.0000;0.0000;0.0000;
110;366.19;27308.46;-27308.46;0.0000;0.0000;0.0000;0.0000;0.0000;0.0000;0.0000;
111;366.62;27275.97;-27275.97;0.0000;0.0000;0.0000;0.0000;0.0000;0.0000;0.0000;
112;367.06;27243.56;-27243.56;0.0000;0.0000;0.0000;0.0000;0.0000;0.0000;0.0000;
113;367.50;27211.23;-27211.23;0.0000;0.0000;0.0000;0.0000;0.0000;0.0000;0.0000;
114;367.93;27178.98;-27178.98;0.0000;0.0000;0.0000;0.0000;0.0000;0.0000;0.0000;
115;368.37;27146.81;-27146.81;0.0000;0.0000;0.0000;0.0000;0.0000;0.0000;0.0000;
116;368.80;27114.73;-27114.73;0.0000;0.0000;0.0000;0.0000;0.0000;0.0000;0.0000;
117;369.24;27082.72;-27082.72;0.0000;0.0000;0.0000;0.0000;0.0000;0.0000;0.0000;
118;369.67;27050.79;-27050.79;0.0000;0.0000;0.0000;0.0000;0.0000;0.0000;0.0000;
119;370.11;27018.95;-27018.95;0.0000;0.0000;0.0000;0.0000;0.0000;0.0000;0.0000;
120;370.55;26987.19;-26987.19;0.0000;0.0000;0.0000;0.0000;0.0000;0.0000;0.0000;
121;370.98;26955.50;-26955.50;0.0000;0.0000;0.0000;0.0000;0.0000;0.0000;0.0000;
122;371.42;26923.89;-26923.89;0.0000;0.0000;0.0000;0.0000;0.0000;0.0000;0.0000;
123;371.85;26892.37;-26892.37;0.0000;0.0000;0.0000;0.0000;0.0000;0.0000;0.0000;
124;372.29;26860.92;-26860.92;0.0000;0.0000;0.0000;0.0000;0.0000;0.0000;0.0000;
125;372.72;26829.55;-26829.55;0.0000;0.0000;0.0000;0.0000;0.0000;0.0000;0.0000;
126;373.16;26798.25;-26798.25;0.0000;0.0000;0.0000;0.0000;0.0000;0.0000;0.0000;
127;373.59;26767.04;-26767.04;0.0000;0.0000;0.0000;0.0000;0.0000;0.0000;0.0000;
128;374.03;26735.90;-26735.90;0.0000;0.0000;0.0000;0.0000;0.0000;0.0000;0.0000;
129;374.46;26704.84;-26704.84;0.0000;0.0000;0.0000;0.0000;0.0000;0.0000;0.0000;
130;374.90;26673.86;-26673.86;0.0000;0.0000;0.0000;0.0000;0.0000;0.0000;0.0000;
131;375.33;26642.95;-26642.95;0.0000;0.0000;0.0000;0.0000;0.0000;0.0000;0.0000;
132;375.77;26612.12;-26612.12;0.0000;0.0000;0.0000;0.0000;0.0000;0.0000;0.0000;
133;376.20;26581.36;-26581.36;0.0000;0.0000;0.0000;0.0000;0.0000;0.0000;0.0000;
134;376.64;26550.68;-26550.68;0.0000;0.0000;0.0000;0.0000;0.0000;0.0000;0.0000;
135;377.07;26520.08;-26520.08;0.0000;0.0000;0.0000;0.0000;0.0000;0.0000;0.0000;
136;377.51;26489.55;-26489.55;0.0000;0.0000;0.0000;0.0000;0.0000;0.0000;0.0000;
137;377.94;26459.10;-26459.10;0.0000;0.0000;0.0000;0.0000;0.0000;0.0000;0.0000;
138;378.38;26428.72;-26428.72;0.0000;0.0000;0.0000;0.0000;0.0000;0.0000;0.0000;
139;378.81;26398.42;-26398.42;0.0000;0.0000;0.0000;0.0000;0.0000;0.0000;0.0000;
140;379.24;26368.18;-26368.18;0.0000;0.0000;0.0000;0.0000;0.0000;0.0000;0.0000;
141;379.68;26338.03;-26338.03;0.0000;0.0000;0.0000;0.0000;0.0000;0.0000;0.0000;
142;380.11;26307.95;-26307.95;0.0000;0.0000;0.0000;0.0000;0.0000;0.0000;0.0000;
143;380.55;26277.94;-26277.94;0.0000;0.0000;0.0000;0.0000;0.0000;0.0000;0.0000;
144;380.98;26248.00;-26248.00;0.0000;0.0000;0.0000;0.0000;0.0000;0.0000;0.0000;
145;381.42;26218.13;-26218.13;0.0000;0.0000;0.0000;0.0000;0.0000;0.0000;0.0000;
146;381.85;26188.34;-26188.34;0.0000;0.0000;0.0000;0.0000;0.0000;0.0000;0.0000;
147;382.28;26158.62;-26158.62;0.0000;0.0000;0.0000;0.0000;0.0000;0.0000;0.0000;
148;382.72;26128.98;-26128.98;0.0000;0.0000;0.0000;0.0000;0.0000;0.0000;0.0000;
149;383.15;26099.40;-26099.40;0.0000;0.0000;0.0000;0.0000;0.0000;0.0000;0.0000;
150;383.58;26069.90;-26069.90;0.0000;0.0000;0.0000;0.0000;0.0000;0.0000;0.0000;
151;384.02;26040.46;-26040.46;0.0000;0.0000;0.0000;0.0000;0.0000;0.0000;0.0000;
152;384.45;26011.10;-26011.10;0.0000;0.0000;0.0000;0.0000;0.0000;0.0000;0.0000;
153;384.88;25981.81;-25981.81;0.0000;0.0000;0.0000;0.0000;0.0000;0.0000;0.0000;
154;385.32;25952.59;-25952.59;0.0000;0.0000;0.0000;0.0000;0.0000;0.0000;0.0000;
155;385.75;25923.44;-25923.44;0.0000;0.0000;0.0000;0.0000;0.0000;0.0000;0.0000;
156;386.18;25894.36;-25894.36;0.0000;0.0000;0.0000;0.0000;0.0000;0.0000;0.0000;
157;386.62;25865.34;-25865.34;0.0000;0.0000;0.0000;0.0000;0.0000;0.0000;0.0000;
158;387.05;25836.40;-25836.40;0.0000;0.0000;0.0000;0.0000;0.0000;0.0000;0.0000;
159;387.48;25807.53;-25807.53;0.0000;0.0000;0.0000;0.0000;0.0000;0.0000;0.0000;
160;387.92;25778.73;-25778.73;0.0000;0.0000;0.0000;0.0000;0.0000;0.0000;0.0000;
161;388.35;25749.99;-25749.99;0.0000;0.0000;0.0000;0.0000;0.0000;0.0000;0.0000;
162;388.78;25721.32;-25721.32;0.0000;0.0000;0.0000;0.0000;0.0000;0.0000;0.0000;
163;389.22;25692.72;-25692.72;0.0000;0.0000;0.0000;0.0000;0.0000;0.0000;0.0000;
164;389.65;25664.19;-25664.19;0.0000;0.0000;0.0000;0.0000;0.0000;0.0000;0.0000;
165;390.08;25635.73;-25635.73;0.0000;0.0000;0.0000;0.0000;0.0000;0.0000;0.0000;
166;390.51;25607.34;-25607.34;0.0000;0.0000;0.0000;0.0000;0.0000;0.0000;0.0000;
167;390.95;25579.01;-25579.01;0.0000;0.0000;0.0000;0.0000;0.0000;0.0000;0.0000;
168;391.38;25550.75;-25550.75;0.0000;0.0000;0.0000;0.0000;0.0000;0.0000;0.0000;
169;391.81;25522.55;-25522.55;0.0000;0.0000;0.0000;0.0000;0.0000;0.0000;0.0000;
170;392.24;25494.42;-25494.42;0.0000;0.0000;0.0000;0.0000;0.0000;0.0000;0.0000;
171;392.67;25466.36;-25466.36;0.0000;0.0000;0.0000;0.0000;0.0000;0.0000;0.0000;
172;393.11;25438.37;-25438.37;0.0000;0.0000;0.0000;0.0000;0.0000;0.0000;0.0000;
173;393.54;25410.44;-25410.44;0.0000;0.0000;0.0000;0.0000;0.0000;0.0000;0.0000;
174;393.97;25382.57;-25382.57;0.0000;0.0000;0.0000;0.0000;0.0000;0.0000;0.0000;
175;394.40;25354.77;-25354.77;0.0000;0.0000;0.0000;0.0000;0.0000;0.0000;0.0000;
176;394.83;25327.04;-25327.04;0.0000;0.0000;0.0000;0.0000;0.0000;0.0000;0.0000;
177;395.27;25299.37;-25299.37;0.0000;0.0000;0.0000;0.0000;0.0000;0.0000;0.0000;
178;395.70;25271.77;-25271.77;0.0000;0.0000;0.0000;0.0000;0.0000;0.0000;0.0000;
179;396.13;25244.23;-25244.23;0.0000;0.0000;0.0000;0.0000;0.0000;0.0000;0.0000;
180;396.56;25216.75;-25216.75;0.0000;0.0000;0.0000;0.0000;0.0000;0.0000;0.0000;
181;396.99;25189.34;-25189.34;0.0000;0.0000;0.0000;0.0000;0.0000;0.0000;0.0000;
182;397.42;25161.99;-25161.99;0.0000;0.0000;0.0000;0.0000;0.0000;0.0000;0.0000;
183;397.86;25134.71;-25134.71;0.0000;0.0000;0.0000;0.0000;0.0000;0.0000;0.0000;
184;398.29;25107.49;-25107.49;0.0000;0.0000;0.0000;0.0000;0.0000;0.0000;0.0000;
185;398.72;25080.33;-25080.33;0.0000;0.0000;0.0000;0.0000;0.0000;0.0000;0.0000;
186;399.15;25053.24;-25053.24;0.0000;0.0000;25.0000;25.0000;0.0000;0.0000;0.0000;
187;399.58;25026.20;-25026.20;0.0000;0.0000;0.0000;0.0000;0.0000;0.0000;0.0000;
188;400.01;24999.24;-24999.24;0.0000;0.0000;0.0000;0.0000;0.0000;0.0000;0.0000;
189;400.44;24972.33;-24972.33;0.0000;0.0000;0.0000;0.0000;0.0000;0.0000;0.0000;
190;400.87;24945.48;-24945.48;0.0000;0.0000;0.0000;0.0000;0.0000;0.0000;0.0000;
191;401.31;24918.70;-24918.70;0.0000;19.0000;11.0000;11.0000;57.8947;0.2374;0.0000;
192;401.74;24891.98;-24891.98;0.0000;0.0000;5.0000;5.0000;0.0000;0.0000;0.0000;
193;402.17;24865.32;-24865.32;0.0000;0.0000;0.0000;0.0000;0.0000;0.0000;0.0000;
194;402.60;24838.72;-24838.72;0.0000;0.0000;0.0000;0.0000;0.0000;0.0000;0.0000;
195;403.03;24812.18;-24812.18;0.0000;0.0000;0.0000;0.0000;0.0000;0.0000;0.0000;
196;403.46;24785.70;-24785.70;0.0000;0.0000;0.0000;0.0000;0.0000;0.0000;0.0000;
197;403.89;24759.29;-24759.29;0.0000;47.0000;0.0000;0.0000;0.0000;0.0000;0.0000;
198;404.32;24732.93;-24732.93;0.0000;0.0000;9.0000;9.0000;0.0000;0.0000;0.0000;
199;404.75;24706.63;-24706.63;0.0000;0.0000;0.0000;0.0000;0.0000;0.0000;0.0000;
200;405.18;24680.40;-24680.40;0.0000;0.0000;0.0000;0.0000;0.0000;0.0000;0.0000;
201;405.61;24654.22;-24654.22;0.0000;0.0000;53.0000;53.0000;0.0000;0.0000;0.0000;
202;406.04;24628.11;-24628.11;0.0000;0.0000;0.0000;0.0000;0.0000;0.0000;0.0000;
203;406.47;24602.05;-24602.05;0.0000;0.0000;15.0000;15.0000;0.0000;0.0000;0.0000;
204;406.90;24576.05;-24576.05;0.0000;1.0000;77.0000;77.0000;7700.0000;-1.8865;0.0000;
205;407.33;24550.11;-24550.11;0.0000;0.0000;0.0000;0.0000;0.0000;0.0000;0.0000;
206;407.76;24524.23;-24524.23;0.0000;0.0000;1.0000;1.0000;0.0000;0.0000;0.0000;
207;408.19;24498.41;-24498.41;0.0000;0.0000;29.0000;29.0000;0.0000;0.0000;0.0000;
208;408.62;24472.64;-24472.64;0.0000;0.0000;0.0000;0.0000;0.0000;0.0000;0.0000;
209;409.05;24446.94;-24446.94;0.0000;0.0000;1.0000;1.0000;0.0000;0.0000;0.0000;
210;409.48;24421.29;-24421.29;0.0000;0.0000;61.0000;61.0000;0.0000;0.0000;0.0000;
211;409.91;24395.70;-24395.70;0.0000;0.0000;25.0000;25.0000;0.0000;0.0000;0.0000;
212;410.34;24370.17;-24370.17;0.0000;9.0000;7.0000;7.0000;77.7778;0.1091;0.0000;
213;410.77;24344.69;-24344.69;0.0000;0.0000;3.0000;3.0000;0.0000;0.0000;0.0000;
214;411.20;24319.28;-24319.28;0.0000;7.0000;119.0000;119.0000;1700.0000;-1.2304;0.0000;
215;411.63;24293.92;-24293.92;0.0000;67.0000;89.0000;89.0000;132.8358;-0.1233;0.0000;
216;412.05;24268.61;-24268.61;0.0000;0.0000;9.0000;9.0000;0.0000;0.0000;0.0000;
217;412.48;24243.36;-24243.36;0.0000;0.0000;33.0000;33.0000;0.0000;0.0000;0.0000;
218;412.91;24218.17;-24218.17;0.0000;29.0000;43.0000;43.0000;148.2759;-0.1711;0.0000;
219;413.34;24193.04;-24193.04;0.0000;59.0000;87.0000;87.0000;147.4576;-0.1687;0.0000;
220;413.77;24167.96;-24167.96;0.0000;29.0000;73.0000;73.0000;251.7241;-0.4009;0.0000;
221;414.20;24142.94;-24142.94;0.0000;0.0000;5.0000;5.0000;0.0000;0.0000;0.0000;
222;414.63;24117.97;-24117.97;0.0000;0.0000;53.0000;53.0000;0.0000;0.0000;0.0000;
223;415.06;24093.06;-24093.06;0.0000;0.0000;159.0000;159.0000;0.0000;0.0000;0.0000;
224;415.49;24068.20;-24068.20;0.0000;41.0000;103.0000;103.0000;251.2195;-0.4001;0.0000;
225;415.91;24043.40;-24043.40;0.0000;13.0000;107.0000;107.0000;823.0769;-0.9154;0.0000;
226;416.34;24018.66;-24018.66;0.0000;55.0000;35.0000;35.0000;63.6364;0.1963;0.0000;
227;416.77;23993.97;-23993.97;0.0000;39.0000;187.0000;187.0000;479.4872;-0.6808;0.0000;
228;417.20;23969.33;-23969.33;0.0000;57.0000;81.0000;81.0000;142.1053;-0.1526;0.0000;
229;417.63;23944.75;-23944.75;0.0000;25.0000;77.0000;77.0000;308.0000;-0.4886;0.0000;
230;418.06;23920.22;-23920.22;0.0000;55.0000;137.0000;137.0000;249.0909;-0.3964;0.0000;
231;418.48;23895.75;-23895.75;0.0000;63.0000;97.0000;97.0000;153.9683;-0.1874;0.0000;
232;418.91;23871.33;-23871.33;0.0000;97.0000;49.0000;49.0000;50.5155;0.2966;0.0000;
233;419.34;23846.96;-23846.96;0.0000;97.0000;213.0000;213.0000;219.5876;-0.3416;0.0000;
234;419.77;23822.65;-23822.65;0.0000;37.0000;231.0000;231.0000;624.3243;-0.7954;0.0000;
235;420.20;23798.39;-23798.39;0.0000;161.0000;133.0000;133.0000;82.6087;0.0830;0.0000;
236;420.62;23774.18;-23774.18;0.0000;109.0000;157.0000;157.0000;144.0367;-0.1585;0.0000;
237;421.05;23750.03;-23750.03;0.0000;129.0000;253.0000;253.0000;196.1240;-0.2925;0.0000;
238;421.48;23725.93;-23725.93;0.0000;101.0000;153.0000;153.0000;151.4851;-0.1804;0.0000;
239;421.91;23701.88;-23701.88;0.0000;113.0000;117.0000;117.0000;103.5398;-0.0151;0.0000;
240;422.34;23677.89;-23677.89;0.0000;179.0000;233.0000;233.0000;130.1676;-0.1145;0.0000;
241;422.76;23653.94;-23653.94;0.0000;89.0000;277.0000;277.0000;311.2360;-0.4931;0.0000;
242;423.19;23630.05;-23630.05;0.0000;105.0000;169.0000;169.0000;160.9524;-0.2067;0.0000;
243;423.62;23606.21;-23606.21;0.0000;229.0000;183.0000;183.0000;79.9127;0.0974;0.0000;
244;424.04;23582.43;-23582.43;0.0000;85.0000;239.0000;239.0000;281.1765;-0.4490;0.0000;
245;424.47;23558.69;-23558.69;0.0000;229.0000;229.0000;229.0000;100.0000;0.0000;0.0000;
246;424.90;23535.01;-23535.01;0.0000;179.0000;225.0000;225.0000;125.6983;-0.0993;0.0000;
247;425.33;23511.38;-23511.38;0.0000;175.0000;309.0000;309.0000;176.5714;-0.2469;0.0000;
248;425.75;23487.79;-23487.79;0.0000;177.0000;295.0000;295.0000;166.6667;-0.2218;0.0000;
249;426.18;23464.26;-23464.26;0.0000;237.0000;215.0000;215.0000;90.7173;0.0423;0.0000;
250;426.61;23440.78;-23440.78;0.0000;271.0000;157.0000;157.0000;57.9336;0.2371;0.0000;
251;427.03;23417.36;-23417.36;0.0000;259.0000;311.0000;311.0000;120.0772;-0.0795;0.0000;
252;427.46;23393.98;-23393.98;0.0000;239.0000;385.0000;385.0000;161.0879;-0.2071;0.0000;
253;427.89;23370.65;-23370.65;0.0000;235.0000;285.0000;285.0000;121.2766;-0.0838;0.0000;
254;428.31;23347.37;-23347.37;0.0000;293.0000;297.0000;297.0000;101.3652;-0.0059;0.0000;
255;428.74;23324.14;-23324.14;0.0000;267.0000;297.0000;297.0000;111.2360;-0.0462;0.0000;
256;429.17;23300.97;-23300.97;0.0000;319.0000;371.0000;371.0000;116.3009;-0.0656;0.0000;
257;429.59;23277.84;-23277.84;0.0000;241.0000;361.0000;361.0000;149.7925;-0.1755;0.0000;
258;430.02;23254.76;-23254.76;0.0000;311.0000;349.0000;349.0000;112.2186;-0.0501;0.0000;
259;430.45;23231.73;-23231.73;0.0000;343.0000;291.0000;291.0000;84.8397;0.0714;0.0000;
260;430.87;23208.75;-23208.75;0.0000;261.0000;435.0000;435.0000;166.6667;-0.2218;0.0000;
261;431.30;23185.82;-23185.82;0.0000;291.0000;373.0000;373.0000;128.1787;-0.1078;0.0000;
262;431.72;23162.94;-23162.94;0.0000;183.0000;363.0000;363.0000;198.3607;-0.2975;0.0000;
263;432.15;23140.10;-23140.10;0.0000;317.0000;297.0000;297.0000;93.6909;0.0283;0.0000;
264;432.58;23117.32;-23117.32;0.0000;309.0000;425.0000;425.0000;137.5405;-0.1384;0.0000;
265;433.00;23094.58;-23094.58;0.0000;347.0000;357.0000;357.0000;102.8818;-0.0123;0.0000;
266;433.43;23071.89;-23071.89;0.0000;383.0000;339.0000;339.0000;88.5117;0.0530;0.0000;
267;433.85;23049.25;-23049.25;0.0000;395.0000;381.0000;381.0000;96.4557;0.0157;0.0000;
268;434.28;23026.66;-23026.66;0.0000;313.0000;433.0000;433.0000;138.3387;-0.1409;0.0000;
269;434.70;23004.12;-23004.12;0.0000;349.0000;425.0000;425.0000;121.7765;-0.0856;0.0000;
270;435.13;22981.62;-22981.62;0.0000;453.0000;369.0000;369.0000;81.4570;0.0891;0.0000;
271;435.56;22959.17;-22959.17;0.0000;381.0000;407.0000;407.0000;106.8241;-0.0287;0.0000;
272;435.98;22936.77;-22936.77;0.0000;413.0000;509.0000;509.0000;123.2446;-0.0908;0.0000;
273;436.41;22914.42;-22914.42;0.0000;427.0000;475.0000;475.0000;111.2412;-0.0463;0.0000;
274;436.83;22892.11;-22892.11;0.0000;387.0000;471.0000;471.0000;121.7054;-0.0853;0.0000;
275;437.26;22869.85;-22869.85;0.0000;495.0000;513.0000;513.0000;103.6364;-0.0155;0.0000;
276;437.68;22847.64;-22847.64;0.0000;363.0000;503.0000;503.0000;138.5675;-0.1417;0.0000;
277;438.11;22825.47;-22825.47;0.0000;407.0000;547.0000;547.0000;134.3980;-0.1284;0.0000;
278;438.53;22803.35;-22803.35;0.0000;457.0000;519.0000;519.0000;113.5667;-0.0553;0.0000;
279;438.96;22781.28;-22781.28;0.0000;501.0000;539.0000;539.0000;107.5848;-0.0318;0.0000;
280;439.38;22759.25;-22759.25;0.0000;485.0000;597.0000;597.0000;123.0928;-0.0902;0.0000;
281;439.81;22737.27;-22737.27;0.0000;541.0000;551.0000;551.0000;101.8484;-0.0080;0.0000;
282;440.23;22715.33;-22715.33;0.0000;465.0000;585.0000;585.0000;125.8065;-0.0997;0.0000;
283;440.66;22693.44;-22693.44;0.0000;437.0000;569.0000;569.0000;130.2059;-0.1146;0.0000;
284;441.08;22671.60;-22671.60;0.0000;489.0000;617.0000;617.0000;126.1759;-0.1010;0.0000;
285;441.51;22649.80;-22649.80;0.0000;511.0000;651.0000;651.0000;127.3973;-0.1052;0.0000;
286;441.93;22628.05;-22628.05;0.0000;533.0000;515.0000;515.0000;96.6229;0.0149;0.0000;
287;442.35;22606.34;-22606.34;0.0000;543.0000;595.0000;595.0000;109.5764;-0.0397;0.0000;
288;442.78;22584.68;-22584.68;0.0000;501.0000;605.0000;605.0000;120.7585;-0.0819;0.0000;
289;443.20;22563.06;-22563.06;0.0000;545.0000;535.0000;535.0000;98.1651;0.0080;0.0000;
290;443.63;22541.48;-22541.48;0.0000;565.0000;687.0000;687.0000;121.5929;-0.0849;0.0000;
291;444.05;22519.96;-22519.96;0.0000;527.0000;641.0000;641.0000;121.6319;-0.0850;0.0000;
292;444.47;22498.47;-22498.47;0.0000;445.0000;575.0000;575.0000;129.2135;-0.1113;0.0000;
293;444.90;22477.03;-22477.03;0.0000;511.0000;551.0000;551.0000;107.8278;-0.0327;0.0000;
294;445.32;22455.64;-22455.64;0.0000;675.0000;607.0000;607.0000;89.9259;0.0461;0.0000;
295;445.75;22434.29;-22434.29;0.0000;575.0000;663.0000;663.0000;115.3043;-0.0618;0.0000;
296;446.17;22412.98;-22412.98;0.0000;623.0000;723.0000;723.0000;116.0514;-0.0647;0.0000;
297;446.59;22391.71;-22391.71;0.0000;611.0000;603.0000;603.0000;98.6907;0.0057;0.0000;
298;447.02;22370.49;-22370.49;0.0000;631.0000;613.0000;613.0000;97.1474;0.0126;0.0000;
299;447.44;22349.32;-22349.32;0.0000;557.0000;671.0000;671.0000;120.4668;-0.0809;0.0000;
300;447.86;22328.19;-22328.19;0.0000;605.0000;593.0000;593.0000;98.0165;0.0087;0.0000;
301;448.29;22307.10;-22307.10;0.0000;625.0000;665.0000;665.0000;106.4000;-0.0269;0.0000;
302;448.71;22286.05;-22286.05;0.0000;639.0000;619.0000;619.0000;96.8701;0.0138;0.0000;
303;449.13;22265.05;-22265.05;0.0000;627.0000;711.0000;711.0000;113.3971;-0.0546;0.0000;
304;449.56;22244.09;-22244.09;0.0000;769.0000;709.0000;709.0000;92.1977;0.0353;0.0000;
305;449.98;22223.17;-22223.17;0.0000;717.0000;723.0000;723.0000;100.8368;-0.0036;0.0000;
306;450.40;22202.30;-22202.30;0.0000;565.0000;653.0000;653.0000;115.5752;-0.0629;0.0000;
307;450.83;22181.46;-22181.46;0.0000;647.0000;739.0000;739.0000;114.2195;-0.0577;0.0000;
308;451.25;22160.67;-22160.67;0.0000;655.0000;745.0000;745.0000;113.7405;-0.0559;0.0000;
309;451.67;22139.93;-22139.93;0.0000;697.0000;733.0000;733.0000;105.1650;-0.0219;0.0000;
310;452.10;22119.22;-22119.22;0.0000;693.0000;687.0000;687.0000;99.1342;0.0038;0.0000;
311;452.52;22098.56;-22098.56;0.0000;665.0000;753.0000;753.0000;113.2331;-0.0540;0.0000;
312;452.94;22077.94;-22077.94;0.0000;763.0000;743.0000;743.0000;97.3788;0.0115;0.0000;
313;453.36;22057.36;-22057.36;0.0000;717.0000;799.0000;799.0000;111.4365;-0.0470;0.0000;
314;453.79;22036.82;-22036.82;0.0000;695.0000;783.0000;783.0000;112.6619;-0.0518;0.0000;
315;454.21;22016.32;-22016.32;0.0000;603.0000;845.0000;845.0000;140.1327;-0.1465;0.0000;
316;454.63;21995.87;-21995.87;0.0000;835.0000;713.0000;713.0000;85.3892;0.0686;0.0000;
317;455.05;21975.45;-21975.45;0.0000;811.0000;789.0000;789.0000;97.2873;0.0119;0.0000;
318;455.48;21955.08;-21955.08;0.0000;887.0000;905.0000;905.0000;102.0293;-0.0087;0.0000;
319;455.90;21934.75;-21934.75;0.0000;711.0000;857.0000;857.0000;120.5345;-0.0811;0.0000;
320;456.32;21914.46;-21914.46;0.0000;763.0000;845.0000;845.0000;110.7471;-0.0443;0.0000;
321;456.74;21894.21;-21894.21;0.0000;765.0000;877.0000;877.0000;114.6405;-0.0593;0.0000;
322;457.16;21874.00;-21874.00;0.0000;829.0000;883.0000;883.0000;106.5139;-0.0274;0.0000;
323;457.59;21853.83;-21853.83;0.0000;887.0000;747.0000;747.0000;84.2165;0.0746;0.0000;
324;458.01;21833.70;-21833.70;0.0000;847.0000;875.0000;875.0000;103.3058;-0.0141;0.0000;
325;458.43;21813.61;-21813.61;0.0000;811.0000;977.0000;977.0000;120.4686;-0.0809;0.0000;
326;458.85;21793.56;-21793.56;0.0000;731.0000;941.0000;941.0000;128.7278;-0.1097;0.0000;
327;459.27;21773.56;-21773.56;0.0000;807.0000;815.0000;815.0000;100.9913;-0.0043;0.0000;
328;459.69;21753.59;-21753.59;0.0000;841.0000;983.0000;983.0000;116.8847;-0.0678;0.0000;
329;460.12;21733.66;-21733.66;0.0000;951.0000;981.0000;981.0000;103.1546;-0.0135;0.0000;
330;460.54;21713.77;-21713.77;0.0000;969.0000;1073.0000;1073.0000;110.7327;-0.0443;0.0000;
331;460.96;21693.92;-21693.92;0.0000;957.0000;1013.0000;1013.0000;105.8516;-0.0247;0.0000;
332;461.38;21674.11;-21674.11;0.0000;905.0000;993.0000;993.0000;109.7238;-0.0403;0.0000;
333;461.80;21654.34;-21654.34;0.0000;933.0000;977.0000;977.0000;104.7160;-0.0200;0.0000;
334;462.22;21634.61;-21634.61;0.0000;1135.0000;1029.0000;1029.0000;90.6608;0.0426;0.0000;
335;462.64;21614.92;-21614.92;0.0000;999.0000;1115.0000;1115.0000;111.6116;-0.0477;0.0000;
336;463.06;21595.27;-21595.27;0.0000;1031.0000;1065.0000;1065.0000;103.2978;-0.0141;0.0000;
337;463.49;21575.65;-21575.65;0.0000;1051.0000;957.0000;957.0000;91.0561;0.0407;0.0000;
338;463.91;21556.08;-21556.08;0.0000;1035.0000;1079.0000;1079.0000;104.2512;-0.0181;0.0000;
339;464.33;21536.54;-21536.54;0.0000;1107.0000;1233.0000;1233.0000;111.3821;-0.0468;0.0000;
340;464.75;21517.05;-21517.05;0.0000;1123.0000;1181.0000;1181.0000;105.1647;-0.0219;0.0000;
341;465.17;21497.59;-21497.59;0.0000;1117.0000;1293.0000;1293.0000;115.7565;-0.0635;0.0000;
342;465.59;21478.17;-21478.17;0.0000;1143.0000;1283.0000;1283.0000;112.2485;-0.0502;0.0000;
343;466.01;21458.78;-21458.78;0.0000;1153.0000;1219.0000;1219.0000;105.7242;-0.0242;0.0000;
344;466.43;21439.44;-21439.44;0.0000;1107.0000;1189.0000;1189.0000;107.4074;-0.0310;0.0000;
345;466.85;21420.13;-21420.13;0.0000;1187.0000;1229.0000;1229.0000;103.5383;-0.0151;0.0000;
346;467.27;21400.86;-21400.86;0.0000;1247.0000;1237.0000;1237.0000;99.1981;0.0035;0.0000;
347;467.69;21381.63;-21381.63;0.0000;1209.0000;1213.0000;1213.0000;100.3309;-0.0014;0.0000;
348;468.11;21362.44;-21362.44;0.0000;1379.0000;1357.0000;1357.0000;98.4046;0.0070;0.0000;
349;468.53;21343.28;-21343.28;0.0000;1281.0000;1385.0000;1385.0000;108.1187;-0.0339;0.0000;
350;468.95;21324.16;-21324.16;0.0000;1379.0000;1385.0000;1385.0000;100.4351;-0.0019;0.0000;
351;469.37;21305.08;-21305.08;0.0000;1301.0000;1413.0000;1413.0000;108.6088;-0.0359;0.0000;
352;469.79;21286.04;-21286.04;0.0000;1467.0000;1389.0000;1389.0000;94.6830;0.0237;0.0000;
353;470.21;21267.03;-21267.03;0.0000;1457.0000;1413.0000;1413.0000;96.9801;0.0133;0.0000;
354;470.63;21248.06;-21248.06;0.0000;1445.0000;1541.0000;1541.0000;106.6436;-0.0279;0.0000;
355;471.05;21229.13;-21229.13;0.0000;1569.0000;1513.0000;1513.0000;96.4308;0.0158;0.0000;
356;471.47;21210.23;-21210.23;0.0000;1471.0000;1495.0000;1495.0000;101.6315;-0.0070;0.0000;
357;471.89;21191.37;-21191.37;0.0000;1539.0000;1639.0000;1639.0000;106.4977;-0.0273;0.0000;
358;472.31;21172.55;-21172.55;0.0000;1605.0000;1653.0000;1653.0000;102.9907;-0.0128;0.0000;
359;472.73;21153.76;-21153.76;0.0000;1583.0000;1785.0000;1785.0000;112.7606;-0.0522;0.0000;
360;473.15;21135.01;-21135.01;0.0000;1635.0000;1661.0000;1661.0000;101.5902;-0.0069;0.0000;
361;473.57;21116.30;-21116.30;0.0000;1525.0000;1713.0000;1713.0000;112.3279;-0.0505;0.0000;
362;473.99;21097.62;-21097.62;0.0000;1673.0000;1877.0000;1877.0000;112.1937;-0.0500;0.0000;
363;474.41;21078.98;-21078.98;0.0000;1843.0000;1777.0000;1777.0000;96.4189;0.0158;0.0000;
364;474.83;21060.38;-21060.38;0.0000;1833.0000;1905.0000;1905.0000;103.9280;-0.0167;0.0000;
365;475.24;21041.81;-21041.81;0.0000;1827.0000;1993.0000;1993.0000;109.0859;-0.0378;0.0000;
366;475.66;21023.27;-21023.27;0.0000;1949.0000;1875.0000;1875.0000;96.2032;0.0168;0.0000;
367;476.08;21004.77;-21004.77;0.0000;1867.0000;2101.0000;2101.0000;112.5335;-0.0513;0.0000;
368;476.50;20986.31;-20986.31;0.0000;1995.0000;2055.0000;2055.0000;103.0075;-0.0129;0.0000;
369;476.92;20967.88;-20967.88;0.0000;2049.0000;2211.0000;2211.0000;107.9063;-0.0330;0.0000;
370;477.34;20949.49;-20949.49;0.0000;2081.0000;2035.0000;2035.0000;97.7895;0.0097;0.0000;
371;477.76;20931.14;-20931.14;0.0000;2223.0000;2115.0000;2115.0000;95.1417;0.0216;0.0000;
372;478.18;20912.81;-20912.81;0.0000;2295.0000;2179.0000;2179.0000;94.9455;0.0225;0.0000;
373;478.59;20894.53;-20894.53;0.0000;2131.0000;2143.0000;2143.0000;100.5631;-0.0024;0.0000;
374;479.01;20876.28;-20876.28;0.0000;2121.0000;2323.0000;2323.0000;109.5238;-0.0395;0.0000;
375;479.43;20858.06;-20858.06;0.0000;2205.0000;2373.0000;2373.0000;107.6190;-0.0319;0.0000;
376;479.85;20839.88;-20839.88;0.0000;2241.0000;2395.0000;2395.0000;106.8719;-0.0289;0.0000;
377;480.27;20821.73;-20821.73;0.0000;2349.0000;2387.0000;2387.0000;101.6177;-0.0070;0.0000;
378;480.69;20803.62;-20803.62;0.0000;2389.0000;2465.0000;2465.0000;103.1812;-0.0136;0.0000;
379;481.10;20785.54;-20785.54;0.0000;2415.0000;2477.0000;2477.0000;102.5673;-0.0110;0.0000;
380;481.52;20767.50;-20767.50;0.0000;2547.0000;2541.0000;2541.0000;99.7644;0.0010;0.0000;
381;481.94;20749.49;-20749.49;0.0000;2627.0000;2521.0000;2521.0000;95.9650;0.0179;0.0000;
382;482.36;20731.51;-20731.51;0.0000;2561.0000;2675.0000;2675.0000;104.4514;-0.0189;0.0000;
383;482.78;20713.57;-20713.57;0.0000;2391.0000;2629.0000;2629.0000;109.9540;-0.0412;0.0000;
384;483.19;20695.66;-20695.66;0.0000;2575.0000;2735.0000;2735.0000;106.2136;-0.0262;0.0000;
385;483.61;20677.79;-20677.79;0.0000;2609.0000;2741.0000;2741.0000;105.0594;-0.0214;0.0000;
386;484.03;20659.95;-20659.95;0.0000;2691.0000;2783.0000;2783.0000;103.4188;-0.0146;0.0000;
387;484.45;20642.14;-20642.14;0.0000;2691.0000;2711.0000;2711.0000;100.7432;-0.0032;0.0000;
388;484.86;20624.37;-20624.37;0.0000;2787.0000;2849.0000;2849.0000;102.2246;-0.0096;0.0000;
389;485.28;20606.63;-20606.63;0.0000;2737.0000;2793.0000;2793.0000;102.0460;-0.0088;0.0000;
390;485.70;20588.92;-20588.92;0.0000;2757.0000;2877.0000;2877.0000;104.3526;-0.0185;0.0000;
391;486.12;20571.25;-20571.25;0.0000;2863.0000;2955.0000;2955.0000;103.2134;-0.0137;0.0000;
392;486.53;20553.61;-20553.61;0.0000;2827.0000;3011.0000;3011.0000;106.5087;-0.0274;0.0000;
393;486.95;20536.01;-20536.01;0.0000;2811.0000;2879.0000;2879.0000;102.4191;-0.0104;0.0000;
394;487.37;20518.43;-20518.43;0.0000;2811.0000;2937.0000;2937.0000;104.4824;-0.0190;0.0000;
395;487.78;20500.89;-20500.89;0.0000;2823.0000;2971.0000;2971.0000;105.2426;-0.0222;0.0000;
396;488.20;20483.39;-20483.39;0.0000;2961.0000;3059.0000;3059.0000;103.3097;-0.0141;0.0000;
397;488.62;20465.91;-20465.91;0.0000;2917.0000;3055.0000;3055.0000;104.7309;-0.0201;0.0000;
398;489.03;20448.47;-20448.47;0.0000;2875.0000;2925.0000;2925.0000;101.7391;-0.0075;0.0000;
399;489.45;20431.06;-20431.06;0.0000;2969.0000;3021.0000;3021.0000;101.7514;-0.0075;0.0000;
400;489.87;20413.68;-20413.68;0.0000;2849.0000;3007.0000;3007.0000;105.5458;-0.0234;0.0000;
401;490.28;20396.34;-20396.34;0.0000;2941.0000;3033.0000;3033.0000;103.1282;-0.0134;0.0000;
402;490.70;20379.03;-20379.03;0.0000;3143.0000;3023.0000;3023.0000;96.1820;0.0169;0.0000;
403;491.12;20361.75;-20361.75;0.0000;2931.0000;3017.0000;3017.0000;102.9342;-0.0126;0.0000;
404;491.53;20344.50;-20344.50;0.0000;2915.0000;2915.0000;2915.0000;100.0000;0.0000;0.0000;
405;491.95;20327.29;-20327.29;0.0000;2905.0000;3029.0000;3029.0000;104.2685;-0.0182;0.0000;
406;492.37;20310.10;-20310.10;0.0000;3129.0000;3241.0000;3241.0000;103.5794;-0.0153;0.0000;
407;492.78;20292.95;-20292.95;0.0000;3107.0000;3235.0000;3235.0000;104.1197;-0.0175;0.0000;
408;493.20;20275.83;-20275.83;0.0000;3045.0000;3307.0000;3307.0000;108.6043;-0.0358;0.0000;
409;493.61;20258.74;-20258.74;0.0000;3041.0000;3169.0000;3169.0000;104.2091;-0.0179;0.0000;
410;494.03;20241.68;-20241.68;0.0000;3041.0000;3165.0000;3165.0000;104.0776;-0.0174;0.0000;
411;494.45;20224.66;-20224.66;0.0000;2965.0000;3197.0000;3197.0000;107.8246;-0.0327;0.0000;
412;494.86;20207.67;-20207.67;0.0000;3027.0000;3275.0000;3275.0000;108.1929;-0.0342;0.0000;
413;495.28;20190.70;-20190.70;0.0000;3103.0000;3311.0000;3311.0000;106.7032;-0.0282;0.0000;
414;495.69;20173.77;-20173.77;0.0000;3143.0000;3201.0000;3201.0000;101.8454;-0.0079;0.0000;
415;496.11;20156.87;-20156.87;0.0000;3119.0000;3081.0000;3081.0000;98.7817;0.0053;0.0000;
416;496.52;20140.00;-20140.00;0.0000;3259.0000;3157.0000;3157.0000;96.8702;0.0138;0.0000;
417;496.94;20123.17;-20123.17;0.0000;3347.0000;3371.0000;3371.0000;100.7171;-0.0031;0.0000;
418;497.36;20106.36;-20106.36;0.0000;3199.0000;3329.0000;3329.0000;104.0638;-0.0173;0.0000;
419;497.77;20089.58;-20089.58;0.0000;3153.0000;3389.0000;3389.0000;107.4849;-0.0313;0.0000;
420;498.19;20072.84;-20072.84;0.0000;3175.0000;3331.0000;3331.0000;104.9134;-0.0208;0.0000;
421;498.60;20056.12;-20056.12;0.0000;3185.0000;3321.0000;3321.0000;104.2700;-0.0182;0.0000;
422;499.02;20039.44;-20039.44;0.0000;3377.0000;3227.0000;3227.0000;95.5582;0.0197;0.0000;
423;499.43;20022.78;-20022.78;0.0000;3373.0000;3471.0000;3471.0000;102.9054;-0.0124;0.0000;
424;499.85;20006.16;-20006.16;0.0000;3385.0000;3441.0000;3441.0000;101.6544;-0.0071;0.0000;
425;500.26;19989.57;-19989.57;0.0000;3317.0000;3477.0000;3477.0000;104.8236;-0.0205;0.0000;
426;500.68;19973.01;-19973.01;0.0000;3317.0000;3553.0000;3553.0000;107.1149;-0.0298;0.0000;
427;501.09;19956.47;-19956.47;0.0000;3377.0000;3587.0000;3587.0000;106.2185;-0.0262;0.0000;
428;501.51;19939.97;-19939.97;0.0000;3439.0000;3439.0000;3439.0000;100.0000;0.0000;0.0000;
429;501.92;19923.50;-19923.50;0.0000;3473.0000;3525.0000;3525.0000;101.4973;-0.0065;0.0000;
430;502.33;19907.06;-19907.06;0.0000;3569.0000;3663.0000;3663.0000;102.6338;-0.0113;0.0000;
431;502.75;19890.64;-19890.64;0.0000;3477.0000;3647.0000;3647.0000;104.8893;-0.0207;0.0000;
432;503.16;19874.26;-19874.26;0.0000;3511.0000;3611.0000;3611.0000;102.8482;-0.0122;0.0000;
433;503.58;19857.91;-19857.91;0.0000;3621.0000;3529.0000;3529.0000;97.4593;0.0112;0.0000;
434;503.99;19841.58;-19841.58;0.0000;3735.0000;3627.0000;3627.0000;97.1084;0.0127;0.0000;
435;504.41;19825.29;-19825.29;0.0000;3581.0000;3617.0000;3617.0000;101.0053;-0.0043;0.0000;
436;504.82;19809.03;-19809.03;0.0000;3575.0000;3689.0000;3689.0000;103.1888;-0.0136;0.0000;
437;505.23;19792.79;-19792.79;0.0000;3801.0000;3693.0000;3693.0000;97.1586;0.0125;0.0000;
438;505.65;19776.59;-19776.59;0.0000;3981.0000;3779.0000;3779.0000;94.9259;0.0226;0.0000;
439;506.06;19760.41;-19760.41;0.0000;3887.0000;3855.0000;3855.0000;99.1767;0.0036;0.0000;
440;506.48;19744.26;-19744.26;0.0000;3859.0000;3923.0000;3923.0000;101.6585;-0.0071;0.0000;
441;506.89;19728.14;-19728.14;0.0000;3927.0000;3877.0000;3877.0000;98.7268;0.0056;0.0000;
442;507.30;19712.05;-19712.05;0.0000;3905.0000;4061.0000;4061.0000;103.9949;-0.0170;0.0000;
443;507.72;19695.99;-19695.99;0.0000;3883.0000;3993.0000;3993.0000;102.8329;-0.0121;0.0000;
444;508.13;19679.96;-19679.96;0.0000;3965.0000;3899.0000;3899.0000;98.3354;0.0073;0.0000;
445;508.54;19663.96;-19663.96;0.0000;4125.0000;4037.0000;4037.0000;97.8667;0.0094;0.0000;
446;508.96;19647.98;-19647.98;0.0000;4081.0000;4221.0000;4221.0000;103.4305;-0.0146;0.0000;
447;509.37;19632.04;-19632.04;0.0000;4201.0000;4185.0000;4185.0000;99.6191;0.0017;0.0000;
448;509.78;19616.12;-19616.12;0.0000;3963.0000;4051.0000;4051.0000;102.2205;-0.0095;0.0000;
449;510.20;19600.23;-19600.23;0.0000;4021.0000;4109.0000;4109.0000;102.1885;-0.0094;0.0000;
450;510.61;19584.37;-19584.37;0.0000;4137.0000;4179.0000;4179.0000;101.0152;-0.0044;0.0000;
451;511.02;19568.54;-19568.54;0.0000;4223.0000;4343.0000;4343.0000;102.8416;-0.0122;0.0000;
452;511.44;19552.74;-19552.74;0.0000;4429.0000;4225.0000;4225.0000;95.3940;0.0205;0.0000;
453;511.85;19536.96;-19536.96;0.0000;4217.0000;4201.0000;4201.0000;99.6206;0.0017;0.0000;
454;512.26;19521.21;-19521.21;0.0000;4347.0000;4481.0000;4481.0000;103.0826;-0.0132;0.0000;
455;512.68;19505.49;-19505.49;0.0000;4261.0000;4471.0000;4471.0000;104.9284;-0.0209;0.0000;
456;513.09;19489.80;-19489.80;0.0000;4387.0000;4413.0000;4413.0000;100.5927;-0.0026;0.0000;
457;513.50;19474.14;-19474.14;0.0000;4353.0000;4411.0000;4411.0000;101.3324;-0.0057;0.0000;
458;513.91;19458.50;-19458.50;0.0000;4515.0000;4499.0000;4499.0000;99.6456;0.0015;0.0000;
459;514.33;19442.89;-19442.89;0.0000;4497.0000;4479.0000;4479.0000;99.5997;0.0017;0.0000;
460;514.74;19427.31;-19427.31;0.0000;4501.0000;4569.0000;4569.0000;101.5108;-0.0065;0.0000;
461;515.15;19411.76;-19411.76;0.0000;4583.0000;4569.0000;4569.0000;99.6945;0.0013;0.0000;
462;515.56;19396.23;-19396.23;0.0000;4557.0000;4659.0000;4659.0000;102.2383;-0.0096;0.0000;
463;515.98;19380.74;-19380.74;0.0000;4611.0000;4633.0000;4633.0000;100.4771;-0.0021;0.0000;
464;516.39;19365.26;-19365.26;0.0000;4481.0000;4701.0000;4701.0000;104.9096;-0.0208;0.0000;
465;516.80;19349.82;-19349.82;0.0000;4643.0000;4627.0000;4627.0000;99.6554;0.0015;0.0000;
466;517.21;19334.40;-19334.40;0.0000;4487.0000;4533.0000;4533.0000;101.0252;-0.0044;0.0000;
467;517.62;19319.02;-19319.02;0.0000;4399.0000;4623.0000;4623.0000;105.0921;-0.0216;0.0000;
468;518.04;19303.65;-19303.65;0.0000;4669.0000;4741.0000;4741.0000;101.5421;-0.0066;0.0000;
469;518.45;19288.32;-19288.32;0.0000;4841.0000;4745.0000;4745.0000;98.0169;0.0087;0.0000;
470;518.86;19273.01;-19273.01;0.0000;4879.0000;4639.0000;4639.0000;95.0810;0.0219;0.0000;
471;519.27;19257.73;-19257.73;0.0000;4803.0000;4575.0000;4575.0000;95.2530;0.0211;0.0000;
472;519.68;19242.47;-19242.47;0.0000;4841.0000;4853.0000;4853.0000;100.2479;-0.0011;0.0000;
473;520.10;19227.25;-19227.25;0.0000;4711.0000;4735.0000;4735.0000;100.5094;-0.0022;0.0000;
474;520.51;19212.04;-19212.04;0.0000;4565.0000;4703.0000;4703.0000;103.0230;-0.0129;0.0000;
475;520.92;19196.87;-19196.87;0.0000;4591.0000;4607.0000;4607.0000;100.3485;-0.0015;0.0000;
476;521.33;19181.72;-19181.72;0.0000;4723.0000;4621.0000;4621.0000;97.8404;0.0095;0.0000;
477;521.74;19166.60;-19166.60;0.0000;4697.0000;4697.0000;4697.0000;100.0000;0.0000;0.0000;
478;522.15;19151.50;-19151.50;0.0000;4567.0000;4821.0000;4821.0000;105.5616;-0.0235;0.0000;
479;522.56;19136.43;-19136.43;0.0000;4701.0000;4763.0000;4763.0000;101.3189;-0.0057;0.0000;
480;522.97;19121.39;-19121.39;0.0000;4661.0000;4771.0000;4771.0000;102.3600;-0.0101;0.0000;
481;523.39;19106.38;-19106.38;0.0000;4723.0000;4721.0000;4721.0000;99.9577;0.0002;0.0000;
482;523.80;19091.38;-19091.38;0.0000;4705.0000;4557.0000;4557.0000;96.8544;0.0139;0.0000;
483;524.21;19076.42;-19076.42;0.0000;4705.0000;4649.0000;4649.0000;98.8098;0.0052;0.0000;
484;524.62;19061.48;-19061.48;0.0000;4733.0000;4725.0000;4725.0000;99.8310;0.0007;0.0000;
485;525.03;19046.57;-19046.57;0.0000;4699.0000;4645.0000;4645.0000;98.8508;0.0050;0.0000;
486;525.44;19031.68;-19031.68;0.0000;4671.0000;4755.0000;4755.0000;101.7983;-0.0077;0.0000;
487;525.85;19016.82;-19016.82;0.0000;4603.0000;4701.0000;4701.0000;102.1290;-0.0091;0.0000;
488;526.26;19001.99;-19001.99;0.0000;4931.0000;4771.0000;4771.0000;96.7552;0.0143;0.0000;
489;526.67;18987.18;-18987.18;0.0000;4669.0000;4717.0000;4717.0000;101.0281;-0.0044;0.0000;
490;527.08;18972.39;-18972.39;0.0000;4695.0000;4715.0000;4715.0000;100.4260;-0.0018;0.0000;
491;527.49;18957.63;-18957.63;0.0000;4805.0000;4843.0000;4843.0000;100.7908;-0.0034;0.0000;
492;527.90;18942.90;-18942.90;0.0000;4685.0000;4617.0000;4617.0000;98.5486;0.0063;0.0000;
493;528.31;18928.19;-18928.19;0.0000;4601.0000;4783.0000;4783.0000;103.9557;-0.0168;0.0000;
494;528.72;18913.51;-18913.51;0.0000;4717.0000;4735.0000;4735.0000;100.3816;-0.0017;0.0000;
495;529.13;18898.85;-18898.85;0.0000;4823.0000;4815.0000;4815.0000;99.8341;0.0007;0.0000;
496;529.54;18884.22;-18884.22;0.0000;4663.0000;4673.0000;4673.0000;100.2145;-0.0009;0.0000;
497;529.95;18869.61;-18869.61;0.0000;4903.0000;4897.0000;4897.0000;99.8776;0.0005;0.0000;
498;530.36;18855.03;-18855.03;0.0000;4717.0000;4857.0000;4857.0000;102.9680;-0.0127;0.0000;
499;530.77;18840.47;-18840.47;0.0000;4897.0000;4907.0000;4907.0000;100.2042;-0.0009;0.0000;
500;531.18;18825.94;-18825.94;0.0000;4729.0000;4911.0000;4911.0000;103.8486;-0.0164;0.0000;
501;531.59;18811.43;-18811.43;0.0000;4973.0000;4993.0000;4993.0000;100.4022;-0.0017;0.0000;
502;532.00;18796.95;-18796.95;0.0000;5011.0000;4865.0000;4865.0000;97.0864;0.0128;0.0000;
503;532.41;18782.49;-18782.49;0.0000;4867.0000;4869.0000;4869.0000;100.0411;-0.0002;0.0000;
504;532.82;18768.06;-18768.06;0.0000;4983.0000;4907.0000;4907.0000;98.4748;0.0067;0.0000;
505;533.23;18753.65;-18753.65;0.0000;4845.0000;4955.0000;4955.0000;102.2704;-0.0097;0.0000;
506;533.64;18739.27;-18739.27;0.0000;4821.0000;5079.0000;5079.0000;105.3516;-0.0226;0.0000;
507;534.05;18724.91;-18724.91;0.0000;4959.0000;5097.0000;5097.0000;102.7828;-0.0119;0.0000;
508;534.46;18710.57;-18710.57;0.0000;4935.0000;5071.0000;5071.0000;102.7558;-0.0118;0.0000;
509;534.87;18696.26;-18696.26;0.0000;5005.0000;5143.0000;5143.0000;102.7572;-0.0118;0.0000;
510;535.28;18681.98;-18681.98;0.0000;5121.0000;5121.0000;5121.0000;100.0000;0.0000;0.0000;
511;535.68;18667.72;-18667.72;0.0000;5073.0000;5019.0000;5019.0000;98.9355;0.0046;0.0000;
512;536.09;18653.48;-18653.48;0.0000;5083.0000;5053.0000;5053.0000;99.4098;0.0026;0.0000;
513;536.50;18639.26;-18639.26;0.0000;4975.0000;5171.0000;5171.0000;103.9397;-0.0168;0.0000;
514;536.91;18625.07;-18625.07;0.0000;5107.0000;5089.0000;5089.0000;99.6475;0.0015;0.0000;
515;537.32;18610.91;-18610.91;0.0000;5115.0000;5091.0000;5091.0000;99.5308;0.0020;0.0000;
516;537.73;18596.77;-18596.77;0.0000;5221.0000;5061.0000;5061.0000;96.9355;0.0135;0.0000;
517;538.14;18582.65;-18582.65;0.0000;5197.0000;5205.0000;5205.0000;100.1539;-0.0007;0.0000;
518;538.54;18568.55;-18568.55;0.0000;5177.0000;5347.0000;5347.0000;103.2838;-0.0140;0.0000;
519;538.95;18554.48;-18554.48;0.0000;5127.0000;5257.0000;5257.0000;102.5356;-0.0109;0.0000;
520;539.36;18540.44;-18540.44;0.0000;5149.0000;5307.0000;5307.0000;103.0686;-0.0131;0.0000;
521;539.77;18526.41;-18526.41;0.0000;5169.0000;5377.0000;5377.0000;104.0240;-0.0171;0.0000;
522;540.18;18512.42;-18512.42;0.0000;5169.0000;5297.0000;5297.0000;102.4763;-0.0106;0.0000;
523;540.59;18498.44;-18498.44;0.0000;5221.0000;5481.0000;5481.0000;104.9799;-0.0211;0.0000;
524;540.99;18484.49;-18484.49;0.0000;5377.0000;5359.0000;5359.0000;99.6652;0.0015;0.0000;
525;541.40;18470.56;-18470.56;0.0000;5351.0000;5389.0000;5389.0000;100.7101;-0.0031;0.0000;
526;541.81;18456.65;-18456.65;0.0000;5343.0000;5353.0000;5353.0000;100.1872;-0.0008;0.0000;
527;542.22;18442.77;-18442.77;0.0000;5389.0000;5515.0000;5515.0000;102.3381;-0.0100;0.0000;
528;542.63;18428.91;-18428.91;0.0000;5461.0000;5461.0000;5461.0000;100.0000;0.0000;0.0000;
529;543.03;18415.08;-18415.08;0.0000;5413.0000;5525.0000;5525.0000;102.0691;-0.0089;0.0000;
530;543.44;18401.26;-18401.26;0.0000;5465.0000;5489.0000;5489.0000;100.4392;-0.0019;0.0000;
531;543.85;18387.47;-18387.47;0.0000;5545.0000;5449.0000;5449.0000;98.2687;0.0076;0.0000;
532;544.26;18373.71;-18373.71;0.0000;5255.0000;5421.0000;5421.0000;103.1589;-0.0135;0.0000;
533;544.66;18359.96;-18359.96;0.0000;5577.0000;5537.0000;5537.0000;99.2828;0.0031;0.0000;
534;545.07;18346.24;-18346.24;0.0000;5491.0000;5539.0000;5539.0000;100.8742;-0.0038;0.0000;
535;545.48;18332.54;-18332.54;0.0000;5587.0000;5479.0000;5479.0000;98.0669;0.0085;0.0000;
536;545.89;18318.87;-18318.87;0.0000;5701.0000;5529.0000;5529.0000;96.9830;0.0133;0.0000;
537;546.29;18305.22;-18305.22;0.0000;5691.0000;5677.0000;5677.0000;99.7540;0.0011;0.0000;
538;546.70;18291.59;-18291.59;0.0000;5765.0000;5649.0000;5649.0000;97.9879;0.0088;0.0000;
539;547.11;18277.98;-18277.98;0.0000;5707.0000;5721.0000;5721.0000;100.2453;-0.0011;0.0000;
540;547.51;18264.39;-18264.39;0.0000;5807.0000;5831.0000;5831.0000;100.4133;-0.0018;0.0000;
541;547.92;18250.83;-18250.83;0.0000;5641.0000;5785.0000;5785.0000;102.5527;-0.0109;0.0000;
542;548.33;18237.29;-18237.29;0.0000;5707.0000;5677.0000;5677.0000;99.4743;0.0023;0.0000;
543;548.73;18223.78;-18223.78;0.0000;5917.0000;5831.0000;5831.0000;98.5466;0.0064;0.0000;
544;549.14;18210.28;-18210.28;0.0000;5817.0000;5735.0000;5735.0000;98.5903;0.0062;0.0000;
545;549.55;18196.81;-18196.81;0.0000;5721.0000;5627.0000;5627.0000;98.3569;0.0072;0.0000;
546;549.95;18183.36;-18183.36;0.0000;5881.0000;5903.0000;5903.0000;100.3741;-0.0016;0.0000;
547;550.36;18169.93;-18169.93;0.0000;5903.0000;5999.0000;5999.0000;101.6263;-0.0070;0.0000;
548;550.77;18156.52;-18156.52;0.0000;5809.0000;5989.0000;5989.0000;103.0986;-0.0133;0.0000;
549;551.17;18143.14;-18143.14;0.0000;5853.0000;6157.0000;6157.0000;105.1939;-0.0220;0.0000;
550;551.58;18129.78;-18129.78;0.0000;5917.0000;5953.0000;5953.0000;100.6084;-0.0026;0.0000;
551;551.98;18116.44;-18116.44;0.0000;5829.0000;5897.0000;5897.0000;101.1666;-0.0050;0.0000;
552;552.39;18103.12;-18103.12;0.0000;5959.0000;6103.0000;6103.0000;102.4165;-0.0104;0.0000;
553;552.80;18089.82;-18089.82;0.0000;6043.0000;6053.0000;6053.0000;100.1655;-0.0007;0.0000;
554;553.20;18076.55;-18076.55;0.0000;5919.0000;6059.0000;6059.0000;102.3653;-0.0102;0.0000;
555;553.61;18063.29;-18063.29;0.0000;5783.0000;6137.0000;6137.0000;106.1214;-0.0258;0.0000;
556;554.01;18050.06;-18050.06;0.0000;6013.0000;6129.0000;6129.0000;101.9292;-0.0083;0.0000;
557;554.42;18036.85;-18036.85;0.0000;6047.0000;6041.0000;6041.0000;99.9008;0.0004;0.0000;
558;554.83;18023.67;-18023.67;0.0000;6059.0000;6165.0000;6165.0000;101.7495;-0.0075;0.0000;
559;555.23;18010.50;-18010.50;0.0000;5943.0000;5929.0000;5929.0000;99.7644;0.0010;0.0000;
560;555.64;17997.36;-17997.36;0.0000;6013.0000;6043.0000;6043.0000;100.4989;-0.0022;0.0000;
561;556.04;17984.23;-17984.23;0.0000;6047.0000;6161.0000;6161.0000;101.8852;-0.0081;0.0000;
562;556.45;17971.13;-17971.13;0.0000;5961.0000;6029.0000;6029.0000;101.1407;-0.0049;0.0000;
563;556.85;17958.05;-17958.05;0.0000;6081.0000;6257.0000;6257.0000;102.8943;-0.0124;0.0000;
564;557.26;17944.99;-17944.99;0.0000;6045.0000;6183.0000;6183.0000;102.2829;-0.0098;0.0000;
565;557.66;17931.95;-17931.95;0.0000;6139.0000;6159.0000;6159.0000;100.3258;-0.0014;0.0000;
566;558.07;17918.94;-17918.94;0.0000;6027.0000;6211.0000;6211.0000;103.0529;-0.0131;0.0000;
567;558.47;17905.94;-17905.94;0.0000;6121.0000;6265.0000;6265.0000;102.3526;-0.0101;0.0000;
568;558.88;17892.96;-17892.96;0.0000;6269.0000;6345.0000;6345.0000;101.2123;-0.0052;0.0000;
569;559.28;17880.01;-17880.01;0.0000;6319.0000;6341.0000;6341.0000;100.3482;-0.0015;0.0000;
570;559.69;17867.08;-17867.08;0.0000;6243.0000;6321.0000;6321.0000;101.2494;-0.0054;0.0000;
571;560.09;17854.17;-17854.17;0.0000;6191.0000;6287.0000;6287.0000;101.5506;-0.0067;0.0000;
572;560.50;17841.28;-17841.28;0.0000;6227.0000;6141.0000;6141.0000;98.6189;0.0060;0.0000;
573;560.90;17828.41;-17828.41;0.0000;6153.0000;6067.0000;6067.0000;98.6023;0.0061;0.0000;
574;561.31;17815.56;-17815.56;0.0000;5943.0000;6039.0000;6039.0000;101.6153;-0.0070;0.0000;
575;561.71;17802.73;-17802.73;0.0000;6041.0000;6295.0000;6295.0000;104.2046;-0.0179;0.0000;
576;562.12;17789.92;-17789.92;0.0000;6277.0000;6431.0000;6431.0000;102.4534;-0.0105;0.0000;
577;562.52;17777.13;-17777.13;0.0000;6223.0000;6151.0000;6151.0000;98.8430;0.0051;0.0000;
578;562.92;17764.37;-17764.37;0.0000;6163.0000;6257.0000;6257.0000;101.5252;-0.0066;0.0000;
579;563.33;17751.62;-17751.62;0.0000;6267.0000;6185.0000;6185.0000;98.6916;0.0057;0.0000;
580;563.73;17738.89;-17738.89;0.0000;6209.0000;6189.0000;6189.0000;99.6779;0.0014;0.0000;
581;564.14;17726.19;-17726.19;0.0000;5975.0000;6241.0000;6241.0000;104.4519;-0.0189;0.0000;
582;564.54;17713.50;-17713.50;0.0000;6277.0000;6327.0000;6327.0000;100.7966;-0.0034;0.0000;
583;564.94;17700.84;-17700.84;0.0000;6119.0000;6233.0000;6233.0000;101.8630;-0.0080;0.0000;
584;565.35;17688.19;-17688.19;0.0000;6383.0000;6221.0000;6221.0000;97.4620;0.0112;0.0000;
585;565.75;17675.57;-17675.57;0.0000;6205.0000;6325.0000;6325.0000;101.9339;-0.0083;0.0000;
586;566.16;17662.97;-17662.97;0.0000;6289.0000;6277.0000;6277.0000;99.8092;0.0008;0.0000;
587;566.56;17650.38;-17650.38;0.0000;6193.0000;6309.0000;6309.0000;101.8731;-0.0081;0.0000;
588;566.96;17637.82;-17637.82;0.0000;6309.0000;6309.0000;6309.0000;100.0000;0.0000;0.0000;
589;567.37;17625.28;-17625.28;0.0000;6191.0000;6309.0000;6309.0000;101.9060;-0.0082;0.0000;
590;567.77;17612.75;-17612.75;0.0000;6269.0000;6251.0000;6251.0000;99.7129;0.0012;0.0000;
591;568.17;17600.25;-17600.25;0.0000;6239.0000;6529.0000;6529.0000;104.6482;-0.0197;0.0000;
592;568.58;17587.77;-17587.77;0.0000;6113.0000;6427.0000;6427.0000;105.1366;-0.0218;0.0000;
593;568.98;17575.30;-17575.30;0.0000;6205.0000;6317.0000;6317.0000;101.8050;-0.0078;0.0000;
594;569.38;17562.86;-17562.86;0.0000;6159.0000;6449.0000;6449.0000;104.7086;-0.0200;0.0000;
595;569.79;17550.43;-17550.43;0.0000;6219.0000;6401.0000;6401.0000;102.9265;-0.0125;0.0000;
596;570.19;17538.03;-17538.03;0.0000;6225.0000;6413.0000;6413.0000;103.0201;-0.0129;0.0000;
597;570.59;17525.64;-17525.64;0.0000;6105.0000;6689.0000;6689.0000;109.5659;-0.0397;0.0000;
598;571.00;17513.28;-17513.28;0.0000;6323.0000;6433.0000;6433.0000;101.7397;-0.0075;0.0000;
599;571.40;17500.93;-17500.93;0.0000;6305.0000;6329.0000;6329.0000;100.3807;-0.0017;0.0000;
600;571.80;17488.61;-17488.61;0.0000;6357.0000;6333.0000;6333.0000;99.6225;0.0016;0.0000;
601;572.20;17476.30;-17476.30;0.0000;6479.0000;6527.0000;6527.0000;100.7409;-0.0032;0.0000;
602;572.61;17464.01;-17464.01;0.0000;6327.0000;6403.0000;6403.0000;101.2012;-0.0052;0.0000;
603;573.01;17451.75;-17451.75;0.0000;6149.0000;6209.0000;6209.0000;100.9758;-0.0042;0.0000;
604;573.41;17439.50;-17439.50;0.0000;6457.0000;6367.0000;6367.0000;98.6062;0.0061;0.0000;
605;573.81;17427.27;-17427.27;0.0000;6495.0000;6459.0000;6459.0000;99.4457;0.0024;0.0000;
606;574.22;17415.06;-17415.06;0.0000;6291.0000;6375.0000;6375.0000;101.3352;-0.0058;0.0000;
607;574.62;17402.87;-17402.87;0.0000;6329.0000;6623.0000;6623.0000;104.6453;-0.0197;0.0000;
608;575.02;17390.70;-17390.70;0.0000;6481.0000;6471.0000;6471.0000;99.8457;0.0007;0.0000;
609;575.42;17378.55;-17378.55;0.0000;6395.0000;6395.0000;6395.0000;100.0000;0.0000;0.0000;
610;575.82;17366.41;-17366.41;0.0000;6393.0000;6325.0000;6325.0000;98.9363;0.0046;0.0000;
611;576.23;17354.30;-17354.30;0.0000;6405.0000;6523.0000;6523.0000;101.8423;-0.0079;0.0000;
612;576.63;17342.20;-17342.20;0.0000;6299.0000;6545.0000;6545.0000;103.9054;-0.0166;0.0000;
613;577.03;17330.13;-17330.13;0.0000;6519.0000;6511.0000;6511.0000;99.8773;0.0005;0.0000;
614;577.43;17318.07;-17318.07;0.0000;6413.0000;6193.0000;6193.0000;96.5695;0.0152;0.0000;
615;577.83;17306.03;-17306.03;0.0000;6415.0000;6307.0000;6307.0000;98.3164;0.0074;0.0000;
616;578.23;17294.01;-17294.01;0.0000;6417.0000;6349.0000;6349.0000;98.9403;0.0046;0.0000;
617;578.64;17282.01;-17282.01;0.0000;6121.0000;6457.0000;6457.0000;105.4893;-0.0232;0.0000;
618;579.04;17270.03;-17270.03;0.0000;6311.0000;6453.0000;6453.0000;102.2500;-0.0097;0.0000;
619;579.44;17258.07;-17258.07;0.0000;6303.0000;6515.0000;6515.0000;103.3635;-0.0144;0.0000;
620;579.84;17246.12;-17246.12;0.0000;6593.0000;6297.0000;6297.0000;95.5104;0.0199;0.0000;
621;580.24;17234.20;-17234.20;0.0000;6243.0000;6395.0000;6395.0000;102.4347;-0.0104;0.0000;
622;580.64;17222.29;-17222.29;0.0000;6379.0000;6231.0000;6231.0000;97.6799;0.0102;0.0000;
623;581.04;17210.40;-17210.40;0.0000;6255.0000;6485.0000;6485.0000;103.6771;-0.0157;0.0000;
624;581.45;17198.53;-17198.53;0.0000;6183.0000;6399.0000;6399.0000;103.4934;-0.0149;0.0000;
625;581.85;17186.68;-17186.68;0.0000;6211.0000;6291.0000;6291.0000;101.2880;-0.0056;0.0000;
626;582.25;17174.84;-17174.84;0.0000;6075.0000;6453.0000;6453.0000;106.2222;-0.0262;0.0000;
627;582.65;17163.03;-17163.03;0.0000;6275.0000;6395.0000;6395.0000;101.9124;-0.0082;0.0000;
628;583.05;17151.23;-17151.23;0.0000;6085.0000;6383.0000;6383.0000;104.8973;-0.0208;0.0000;
629;583.45;17139.45;-17139.45;0.0000;6171.0000;6443.0000;6443.0000;104.4077;-0.0187;0.0000;
630;583.85;17127.69;-17127.69;0.0000;6225.0000;6481.0000;6481.0000;104.1124;-0.0175;0.0000;
631;584.25;17115.95;-17115.95;0.0000;6127.0000;6543.0000;6543.0000;106.7896;-0.0285;0.0000;
632;584.65;17104.23;-17104.23;0.0000;6005.0000;6195.0000;6195.0000;103.1640;-0.0135;0.0000;
633;585.05;17092.52;-17092.52;0.0000;6215.0000;6189.0000;6189.0000;99.5817;0.0018;0.0000;
634;585.45;17080.83;-17080.83;0.0000;6183.0000;6273.0000;6273.0000;101.4556;-0.0063;0.0000;
635;585.85;17069.16;-17069.16;0.0000;6185.0000;6147.0000;6147.0000;99.3856;0.0027;0.0000;
636;586.25;17057.51;-17057.51;0.0000;6147.0000;6353.0000;6353.0000;103.3512;-0.0143;0.0000;
637;586.65;17045.88;-17045.88;0.0000;6165.0000;6309.0000;6309.0000;102.3358;-0.0100;0.0000;
638;587.05;17034.26;-17034.26;0.0000;6273.0000;6265.0000;6265.0000;99.8725;0.0006;0.0000;
639;587.45;17022.67;-17022.67;0.0000;6145.0000;6179.0000;6179.0000;100.5533;-0.0024;0.0000;
640;587.85;17011.08;-17011.08;0.0000;6031.0000;5931.0000;5931.0000;98.3419;0.0073;0.0000;
641;588.25;16999.52;-16999.52;0.0000;6023.0000;5983.0000;5983.0000;99.3359;0.0029;0.0000;
642;588.65;16987.98;-16987.98;0.0000;6017.0000;6163.0000;6163.0000;102.4265;-0.0104;0.0000;
643;589.05;16976.45;-16976.45;0.0000;6057.0000;6245.0000;6245.0000;103.1038;-0.0133;0.0000;
644;589.45;16964.94;-16964.94;0.0000;6035.0000;6163.0000;6163.0000;102.1210;-0.0091;0.0000;
645;589.85;16953.45;-16953.45;0.0000;5869.0000;6103.0000;6103.0000;103.9871;-0.0170;0.0000;
646;590.25;16941.98;-16941.98;0.0000;6035.0000;5851.0000;5851.0000;96.9511;0.0134;0.0000;
647;590.65;16930.52;-16930.52;0.0000;6057.0000;6087.0000;6087.0000;100.4953;-0.0021;0.0000;
648;591.05;16919.08;-16919.08;0.0000;6035.0000;6249.0000;6249.0000;103.5460;-0.0151;0.0000;
649;591.45;16907.66;-16907.66;0.0000;6147.0000;6135.0000;6135.0000;99.8048;0.0008;0.0000;
650;591.85;16896.25;-16896.25;0.0000;6149.0000;6065.0000;6065.0000;98.6339;0.0060;0.0000;
651;592.25;16884.87;-16884.87;0.0000;5853.0000;6113.0000;6113.0000;104.4422;-0.0189;0.0000;
652;592.65;16873.50;-16873.50;0.0000;5779.0000;6187.0000;6187.0000;107.0600;-0.0296;0.0000;
653;593.04;16862.15;-16862.15;0.0000;6017.0000;6133.0000;6133.0000;101.9279;-0.0083;0.0000;
654;593.44;16850.81;-16850.81;0.0000;6027.0000;6095.0000;6095.0000;101.1283;-0.0049;0.0000;
655;593.84;16839.49;-16839.49;0.0000;5863.0000;6099.0000;6099.0000;104.0252;-0.0171;0.0000;
656;594.24;16828.19;-16828.19;0.0000;5937.0000;6067.0000;6067.0000;102.1897;-0.0094;0.0000;
657;594.64;16816.91;-16816.91;0.0000;6127.0000;6179.0000;6179.0000;100.8487;-0.0037;0.0000;
658;595.04;16805.64;-16805.64;0.0000;6229.0000;6323.0000;6323.0000;101.5091;-0.0065;0.0000;
659;595.44;16794.39;-16794.39;0.0000;6131.0000;6095.0000;6095.0000;99.4128;0.0026;0.0000;
660;595.84;16783.16;-16783.16;0.0000;6155.0000;6065.0000;6065.0000;98.5378;0.0064;0.0000;
661;596.23;16771.95;-16771.95;0.0000;6001.0000;6203.0000;6203.0000;103.3661;-0.0144;0.0000;
662;596.63;16760.75;-16760.75;0.0000;6073.0000;6037.0000;6037.0000;99.4072;0.0026;0.0000;
663;597.03;16749.57;-16749.57;0.0000;6183.0000;6141.0000;6141.0000;99.3207;0.0030;0.0000;
664;597.43;16738.40;-16738.40;0.0000;6003.0000;6153.0000;6153.0000;102.4988;-0.0107;0.0000;
665;597.83;16727.26;-16727.26;0.0000;6413.0000;6051.0000;6051.0000;94.3552;0.0252;0.0000;
666;598.22;16716.13;-16716.13;0.0000;6201.0000;6315.0000;6315.0000;101.8384;-0.0079;0.0000;
667;598.62;16705.01;-16705.01;0.0000;6267.0000;6225.0000;6225.0000;99.3298;0.0029;0.0000;
668;599.02;16693.91;-16693.91;0.0000;6173.0000;6317.0000;6317.0000;102.3327;-0.0100;0.0000;
669;599.42;16682.83;-16682.83;0.0000;6227.0000;6247.0000;6247.0000;100.3212;-0.0014;0.0000;
670;599.82;16671.77;-16671.77;0.0000;6311.0000;6383.0000;6383.0000;101.1409;-0.0049;0.0000;
671;600.21;16660.72;-16660.72;0.0000;6217.0000;6255.0000;6255.0000;100.6112;-0.0026;0.0000;
672;600.61;16649.69;-16649.69;0.0000;6213.0000;6249.0000;6249.0000;100.5794;-0.0025;0.0000;
673;601.01;16638.68;-16638.68;0.0000;6113.0000;6307.0000;6307.0000;103.1736;-0.0136;0.0000;
674;601.41;16627.68;-16627.68;0.0000;6355.0000;6287.0000;6287.0000;98.9300;0.0047;0.0000;
675;601.80;16616.70;-16616.70;0.0000;6369.0000;6415.0000;6415.0000;100.7222;-0.0031;0.0000;
676;602.20;16605.74;-16605.74;0.0000;6407.0000;6381.0000;6381.0000;99.5942;0.0018;0.0000;
677;602.60;16594.79;-16594.79;0.0000;6369.0000;6385.0000;6385.0000;100.2512;-0.0011;0.0000;
678;603.00;16583.86;-16583.86;0.0000;6429.0000;6401.0000;6401.0000;99.5645;0.0019;0.0000;
679;603.39;16572.94;-16572.94;0.0000;6447.0000;6483.0000;6483.0000;100.5584;-0.0024;0.0000;
680;603.79;16562.04;-16562.04;0.0000;6659.0000;6345.0000;6345.0000;95.2846;0.0210;0.0000;
681;604.19;16551.16;-16551.16;0.0000;6437.0000;6555.0000;6555.0000;101.8332;-0.0079;0.0000;
682;604.58;16540.29;-16540.29;0.0000;6527.0000;6525.0000;6525.0000;99.9694;0.0001;0.0000;
683;604.98;16529.44;-16529.44;0.0000;6531.0000;6595.0000;6595.0000;100.9799;-0.0042;0.0000;
684;605.38;16518.61;-16518.61;0.0000;6683.0000;6607.0000;6607.0000;98.8628;0.0050;0.0000;
685;605.77;16507.79;-16507.79;0.0000;6517.0000;6667.0000;6667.0000;102.3017;-0.0099;0.0000;
686;606.17;16496.99;-16496.99;0.0000;6577.0000;6573.0000;6573.0000;99.9392;0.0003;0.0000;
687;606.57;16486.20;-16486.20;0.0000;6689.0000;6549.0000;6549.0000;97.9070;0.0092;0.0000;
688;606.96;16475.43;-16475.43;0.0000;6519.0000;6751.0000;6751.0000;103.5588;-0.0152;0.0000;
689;607.36;16464.68;-16464.68;0.0000;6643.0000;6755.0000;6755.0000;101.6860;-0.0073;0.0000;
690;607.76;16453.94;-16453.94;0.0000;6521.0000;6609.0000;6609.0000;101.3495;-0.0058;0.0000;
691;608.15;16443.22;-16443.22;0.0000;6721.0000;6695.0000;6695.0000;99.6132;0.0017;0.0000;
692;608.55;16432.51;-16432.51;0.0000;6675.0000;6871.0000;6871.0000;102.9363;-0.0126;0.0000;
693;608.95;16421.82;-16421.82;0.0000;6947.0000;6871.0000;6871.0000;98.9060;0.0048;0.0000;
694;609.34;16411.15;-16411.15;0.0000;6617.0000;6797.0000;6797.0000;102.7203;-0.0117;0.0000;
695;609.74;16400.49;-16400.49;0.0000;6817.0000;6891.0000;6891.0000;101.0855;-0.0047;0.0000;
696;610.13;16389.84;-16389.84;0.0000;6805.0000;6873.0000;6873.0000;100.9993;-0.0043;0.0000;
697;610.53;16379.22;-16379.22;0.0000;6871.0000;6923.0000;6923.0000;100.7568;-0.0033;0.0000;
698;610.93;16368.61;-16368.61;0.0000;6661.0000;6697.0000;6697.0000;100.5405;-0.0023;0.0000;
699;611.32;16358.01;-16358.01;0.0000;6745.0000;6899.0000;6899.0000;102.2832;-0.0098;0.0000;
700;611.72;16347.43;-16347.43;0.0000;6713.0000;6831.0000;6831.0000;101.7578;-0.0076;0.0000;
701;612.11;16336.86;-16336.86;0.0000;6901.0000;6939.0000;6939.0000;100.5506;-0.0024;0.0000;
702;612.51;16326.32;-16326.32;0.0000;6947.0000;7061.0000;7061.0000;101.6410;-0.0071;0.0000;
703;612.90;16315.78;-16315.78;0.0000;6927.0000;6933.0000;6933.0000;100.0866;-0.0004;0.0000;
704;613.30;16305.26;-16305.26;0.0000;6969.0000;7061.0000;7061.0000;101.3201;-0.0057;0.0000;
705;613.69;16294.76;-16294.76;0.0000;6865.0000;7061.0000;7061.0000;102.8551;-0.0122;0.0000;
706;614.09;16284.27;-16284.27;0.0000;7001.0000;7073.0000;7073.0000;101.0284;-0.0044;0.0000;
707;614.48;16273.80;-16273.80;0.0000;6905.0000;7101.0000;7101.0000;102.8385;-0.0122;0.0000;
708;614.88;16263.34;-16263.34;0.0000;6709.0000;7127.0000;7127.0000;106.2304;-0.0262;0.0000;
709;615.27;16252.90;-16252.90;0.0000;6765.0000;6797.0000;6797.0000;100.4730;-0.0020;0.0000;
710;615.67;16242.48;-16242.48;0.0000;6929.0000;7139.0000;7139.0000;103.0307;-0.0130;0.0000;
711;616.06;16232.07;-16232.07;0.0000;7033.0000;7059.0000;7059.0000;100.3697;-0.0016;0.0000;
712;616.46;16221.67;-16221.67;0.0000;7025.0000;7073.0000;7073.0000;100.6833;-0.0030;0.0000;
713;616.85;16211.29;-16211.29;0.0000;6827.0000;7029.0000;7029.0000;102.9588;-0.0127;0.0000;
714;617.25;16200.92;-16200.92;0.0000;6915.0000;7065.0000;7065.0000;102.1692;-0.0093;0.0000;
715;617.64;16190.57;-16190.57;0.0000;7015.0000;6861.0000;6861.0000;97.8047;0.0096;0.0000;
716;618.04;16180.24;-16180.24;0.0000;7267.0000;6957.0000;6957.0000;95.7341;0.0189;0.0000;
717;618.43;16169.92;-16169.92;0.0000;7149.0000;7037.0000;7037.0000;98.4333;0.0069;0.0000;
718;618.83;16159.61;-16159.61;0.0000;6903.0000;6957.0000;6957.0000;100.7823;-0.0034;0.0000;
719;619.22;16149.32;-16149.32;0.0000;7031.0000;7103.0000;7103.0000;101.0240;-0.0044;0.0000;
720;619.62;16139.05;-16139.05;0.0000;6931.0000;7103.0000;7103.0000;102.4816;-0.0106;0.0000;
721;620.01;16128.79;-16128.79;0.0000;7173.0000;7199.0000;7199.0000;100.3625;-0.0016;0.0000;
722;620.40;16118.54;-16118.54;0.0000;7021.0000;7057.0000;7057.0000;100.5127;-0.0022;0.0000;
723;620.80;16108.31;-16108.31;0.0000;7051.0000;7049.0000;7049.0000;99.9716;0.0001;0.0000;
724;621.19;16098.10;-16098.10;0.0000;6993.0000;7145.0000;7145.0000;102.1736;-0.0093;0.0000;
725;621.59;16087.89;-16087.89;0.0000;6837.0000;7187.0000;7187.0000;105.1192;-0.0217;0.0000;
726;621.98;16077.71;-16077.71;0.0000;7023.0000;6929.0000;6929.0000;98.6615;0.0059;0.0000;
727;622.37;16067.54;-16067.54;0.0000;6925.0000;6979.0000;6979.0000;100.7798;-0.0034;0.0000;
728;622.77;16057.38;-16057.38;0.0000;6703.0000;7115.0000;7115.0000;106.1465;-0.0259;0.0000;
729;623.16;16047.24;-16047.24;0.0000;6863.0000;7091.0000;7091.0000;103.3222;-0.0142;0.0000;
730;623.55;16037.11;-16037.11;0.0000;6777.0000;6973.0000;6973.0000;102.8921;-0.0124;0.0000;
731;623.95;16027.00;-16027.00;0.0000;7085.0000;7157.0000;7157.0000;101.0162;-0.0044;0.0000;
732;624.34;16016.90;-16016.90;0.0000;6897.0000;7015.0000;7015.0000;101.7109;-0.0074;0.0000;
733;624.73;16006.82;-16006.82;0.0000;6835.0000;7035.0000;7035.0000;102.9261;-0.0125;0.0000;
734;625.13;15996.75;-15996.75;0.0000;6921.0000;7001.0000;7001.0000;101.1559;-0.0050;0.0000;
735;625.52;15986.69;-15986.69;0.0000;6655.0000;6889.0000;6889.0000;103.5162;-0.0150;0.0000;
736;625.91;15976.65;-15976.65;0.0000;6833.0000;7077.0000;7077.0000;103.5709;-0.0152;0.0000;
737;626.31;15966.62;-15966.62;0.0000;6909.0000;7191.0000;7191.0000;104.0816;-0.0174;0.0000;
738;626.70;15956.61;-15956.61;0.0000;6765.0000;6937.0000;6937.0000;102.5425;-0.0109;0.0000;
739;627.09;15946.62;-15946.62;0.0000;6769.0000;6921.0000;6921.0000;102.2455;-0.0096;0.0000;
740;627.49;15936.63;-15936.63;0.0000;6735.0000;6865.0000;6865.0000;101.9302;-0.0083;0.0000;
741;627.88;15926.66;-15926.66;0.0000;6741.0000;6879.0000;6879.0000;102.0472;-0.0088;0.0000;
742;628.27;15916.71;-15916.71;0.0000;6749.0000;6759.0000;6759.0000;100.1482;-0.0006;0.0000;
743;628.66;15906.77;-15906.77;0.0000;6845.0000;6813.0000;6813.0000;99.5325;0.0020;0.0000;
744;629.06;15896.84;-15896.84;0.0000;6751.0000;6717.0000;6717.0000;99.4964;0.0022;0.0000;
745;629.45;15886.93;-15886.93;0.0000;6545.0000;6639.0000;6639.0000;101.4362;-0.0062;0.0000;
746;629.84;15877.04;-15877.04;0.0000;6711.0000;6761.0000;6761.0000;100.7450;-0.0032;0.0000;
747;630.23;15867.15;-15867.15;0.0000;6665.0000;6657.0000;6657.0000;99.8800;0.0005;0.0000;
748;630.63;15857.28;-15857.28;0.0000;6655.0000;6713.0000;6713.0000;100.8715;-0.0038;0.0000;
749;631.02;15847.43;-15847.43;0.0000;6643.0000;6609.0000;6609.0000;99.4882;0.0022;0.0000;
750;631.41;15837.59;-15837.59;0.0000;6491.0000;6689.0000;6689.0000;103.0504;-0.0130;0.0000;
751;631.80;15827.76;-15827.76;0.0000;6483.0000;6559.0000;6559.0000;101.1723;-0.0051;0.0000;
752;632.19;15817.95;-15817.95;0.0000;6639.0000;6717.0000;6717.0000;101.1749;-0.0051;0.0000;
753;632.59;15808.15;-15808.15;0.0000;6521.0000;6481.0000;6481.0000;99.3866;0.0027;0.0000;
754;632.98;15798.36;-15798.36;0.0000;6393.0000;6559.0000;6559.0000;102.5966;-0.0111;0.0000;
755;633.37;15788.59;-15788.59;0.0000;6297.0000;6499.0000;6499.0000;103.2079;-0.0137;0.0000;
756;633.76;15778.83;-15778.83;0.0000;6339.0000;6625.0000;6625.0000;104.5118;-0.0192;0.0000;
757;634.15;15769.09;-15769.09;0.0000;6405.0000;6529.0000;6529.0000;101.9360;-0.0083;0.0000;
758;634.54;15759.36;-15759.36;0.0000;6263.0000;6509.0000;6509.0000;103.9278;-0.0167;0.0000;
759;634.94;15749.64;-15749.64;0.0000;6151.0000;6499.0000;6499.0000;105.6576;-0.0239;0.0000;
760;635.33;15739.94;-15739.94;0.0000;6367.0000;6505.0000;6505.0000;102.1674;-0.0093;0.0000;
761;635.72;15730.25;-15730.25;0.0000;6329.0000;6557.0000;6557.0000;103.6025;-0.0154;0.0000;
762;636.11;15720.58;-15720.58;0.0000;6461.0000;6187.0000;6187.0000;95.7592;0.0188;0.0000;
763;636.50;15710.91;-15710.91;0.0000;6225.0000;6431.0000;6431.0000;103.3092;-0.0141;0.0000;
764;636.89;15701.27;-15701.27;0.0000;6297.0000;6319.0000;6319.0000;100.3494;-0.0015;0.0000;
765;637.28;15691.63;-15691.63;0.0000;6317.0000;6199.0000;6199.0000;98.1320;0.0082;0.0000;
766;637.67;15682.01;-15682.01;0.0000;6443.0000;6185.0000;6185.0000;95.9957;0.0177;0.0000;
767;638.06;15672.40;-15672.40;0.0000;6199.0000;6301.0000;6301.0000;101.6454;-0.0071;0.0000;
768;638.45;15662.81;-15662.81;0.0000;6149.0000;6237.0000;6237.0000;101.4311;-0.0062;0.0000;
769;638.85;15653.23;-15653.23;0.0000;6153.0000;6317.0000;6317.0000;102.6654;-0.0114;0.0000;
770;639.24;15643.66;-15643.66;0.0000;6247.0000;6373.0000;6373.0000;102.0170;-0.0087;0.0000;
771;639.63;15634.11;-15634.11;0.0000;6025.0000;6261.0000;6261.0000;103.9170;-0.0167;0.0000;
772;640.02;15624.57;-15624.57;0.0000;6171.0000;6093.0000;6093.0000;98.7360;0.0055;0.0000;
773;640.41;15615.05;-15615.05;0.0000;6189.0000;6309.0000;6309.0000;101.9389;-0.0083;0.0000;
774;640.80;15605.53;-15605.53;0.0000;6179.0000;6125.0000;6125.0000;99.1261;0.0038;0.0000;
775;641.19;15596.03;-15596.03;0.0000;6039.0000;6373.0000;6373.0000;105.5307;-0.0234;0.0000;
776;641.58;15586.55;-15586.55;0.0000;6199.0000;6257.0000;6257.0000;100.9356;-0.0040;0.0000;
777;641.97;15577.07;-15577.07;0.0000;6233.0000;6173.0000;6173.0000;99.0374;0.0042;0.0000;
778;642.36;15567.61;-15567.61;0.0000;6257.0000;6201.0000;6201.0000;99.1050;0.0039;0.0000;
779;642.75;15558.17;-15558.17;0.0000;6083.0000;6251.0000;6251.0000;102.7618;-0.0118;0.0000;
780;643.14;15548.73;-15548.73;0.0000;6087.0000;6063.0000;6063.0000;99.6057;0.0017;0.0000;
781;643.53;15539.31;-15539.31;0.0000;6199.0000;6095.0000;6095.0000;98.3223;0.0073;0.0000;
782;643.92;15529.91;-15529.91;0.0000;6089.0000;5997.0000;5997.0000;98.4891;0.0066;0.0000;
783;644.31;15520.51;-15520.51;0.0000;6035.0000;6133.0000;6133.0000;101.6239;-0.0070;0.0000;
784;644.70;15511.13;-15511.13;0.0000;6075.0000;6059.0000;6059.0000;99.7366;0.0011;0.0000;
785;645.09;15501.76;-15501.76;0.0000;6335.0000;6187.0000;6187.0000;97.6638;0.0103;0.0000;
786;645.48;15492.41;-15492.41;0.0000;6075.0000;6283.0000;6283.0000;103.4239;-0.0146;0.0000;
787;645.87;15483.07;-15483.07;0.0000;6091.0000;6223.0000;6223.0000;102.1671;-0.0093;0.0000;
788;646.26;15473.74;-15473.74;0.0000;6019.0000;6169.0000;6169.0000;102.4921;-0.0107;0.0000;
789;646.65;15464.42;-15464.42;0.0000;6013.0000;6097.0000;6097.0000;101.3970;-0.0060;0.0000;
790;647.03;15455.12;-15455.12;0.0000;6073.0000;6107.0000;6107.0000;100.5599;-0.0024;0.0000;
791;647.42;15445.83;-15445.83;0.0000;5937.0000;6181.0000;6181.0000;104.1098;-0.0175;0.0000;
792;647.81;15436.55;-15436.55;0.0000;5897.0000;6019.0000;6019.0000;102.0688;-0.0089;0.0000;
793;648.20;15427.29;-15427.29;0.0000;6053.0000;6239.0000;6239.0000;103.0729;-0.0131;0.0000;
794;648.59;15418.03;-15418.03;0.0000;6001.0000;5921.0000;5921.0000;98.6669;0.0058;0.0000;
795;648.98;15408.79;-15408.79;0.0000;6083.0000;6155.0000;6155.0000;101.1836;-0.0051;0.0000;
796;649.37;15399.57;-15399.57;0.0000;6103.0000;6141.0000;6141.0000;100.6226;-0.0027;0.0000;
797;649.76;15390.36;-15390.36;0.0000;5961.0000;6137.0000;6137.0000;102.9525;-0.0126;0.0000;
798;650.15;15381.15;-15381.15;0.0000;5969.0000;6111.0000;6111.0000;102.3790;-0.0102;0.0000;
799;650.53;15371.97;-15371.97;0.0000;6013.0000;6047.0000;6047.0000;100.5654;-0.0024;0.0000;
800;650.92;15362.79;-15362.79;0.0000;6151.0000;6071.0000;6071.0000;98.6994;0.0057;0.0000;
801;651.31;15353.63;-15353.63;0.0000;5885.0000;5933.0000;5933.0000;100.8156;-0.0035;0.0000;
802;651.70;15344.48;-15344.48;0.0000;6231.0000;6209.0000;6209.0000;99.6469;0.0015;0.0000;
803;652.09;15335.34;-15335.34;0.0000;5997.0000;6269.0000;6269.0000;104.5356;-0.0193;0.0000;
804;652.48;15326.22;-15326.22;0.0000;6041.0000;6179.0000;6179.0000;102.2844;-0.0098;0.0000;
805;652.86;15317.10;-15317.10;0.0000;6163.0000;6193.0000;6193.0000;100.4868;-0.0021;0.0000;
806;653.25;15308.00;-15308.00;0.0000;6103.0000;6107.0000;6107.0000;100.0655;-0.0003;0.0000;
807;653.64;15298.92;-15298.92;0.0000;5969.0000;6121.0000;6121.0000;102.5465;-0.0109;0.0000;
808;654.03;15289.84;-15289.84;0.0000;6131.0000;6005.0000;6005.0000;97.9449;0.0090;0.0000;
809;654.42;15280.78;-15280.78;0.0000;6015.0000;6045.0000;6045.0000;100.4988;-0.0022;0.0000;
810;654.80;15271.73;-15271.73;0.0000;6115.0000;6193.0000;6193.0000;101.2756;-0.0055;0.0000;
811;655.19;15262.69;-15262.69;0.0000;6015.0000;6065.0000;6065.0000;100.8313;-0.0036;0.0000;
812;655.58;15253.67;-15253.67;0.0000;5909.0000;5893.0000;5893.0000;99.7292;0.0012;0.0000;
813;655.97;15244.65;-15244.65;0.0000;6093.0000;6131.0000;6131.0000;100.6237;-0.0027;0.0000;
814;656.36;15235.65;-15235.65;0.0000;5939.0000;6257.0000;6257.0000;105.3544;-0.0227;0.0000;
815;656.74;15226.66;-15226.66;0.0000;6007.0000;6153.0000;6153.0000;102.4305;-0.0104;0.0000;
816;657.13;15217.69;-15217.69;0.0000;5999.0000;6093.0000;6093.0000;101.5669;-0.0068;0.0000;
817;657.52;15208.72;-15208.72;0.0000;6037.0000;6237.0000;6237.0000;103.3129;-0.0142;0.0000;
818;657.90;15199.77;-15199.77;0.0000;6103.0000;6257.0000;6257.0000;102.5233;-0.0108;0.0000;
819;658.29;15190.83;-15190.83;0.0000;6039.0000;6251.0000;6251.0000;103.5105;-0.0150;0.0000;
820;658.68;15181.90;-15181.90;0.0000;6071.0000;6141.0000;6141.0000;101.1530;-0.0050;0.0000;
821;659.07;15172.99;-15172.99;0.0000;6073.0000;5923.0000;5923.0000;97.5301;0.0109;0.0000;
822;659.45;15164.09;-15164.09;0.0000;6237.0000;6137.0000;6137.0000;98.3967;0.0070;0.0000;
823;659.84;15155.20;-15155.20;0.0000;6239.0000;6045.0000;6045.0000;96.8905;0.0137;0.0000;
824;660.23;15146.32;-15146.32;0.0000;6167.0000;5913.0000;5913.0000;95.8813;0.0183;0.0000;
825;660.61;15137.45;-15137.45;0.0000;6025.0000;6205.0000;6205.0000;102.9876;-0.0128;0.0000;
826;661.00;15128.59;-15128.59;0.0000;6227.0000;5967.0000;5967.0000;95.8246;0.0185;0.0000;
827;661.39;15119.75;-15119.75;0.0000;5969.0000;6221.0000;6221.0000;104.2218;-0.0180;0.0000;
828;661.77;15110.92;-15110.92;0.0000;6133.0000;6079.0000;6079.0000;99.1195;0.0038;0.0000;
829;662.16;15102.10;-15102.10;0.0000;6181.0000;6075.0000;6075.0000;98.2851;0.0075;0.0000;
830;662.55;15093.29;-15093.29;0.0000;6103.0000;6169.0000;6169.0000;101.0814;-0.0047;0.0000;
831;662.93;15084.50;-15084.50;0.0000;6185.0000;6265.0000;6265.0000;101.2935;-0.0056;0.0000;
832;663.32;15075.72;-15075.72;0.0000;6143.0000;6051.0000;6051.0000;98.5024;0.0066;0.0000;
833;663.70;15066.94;-15066.94;0.0000;6217.0000;6217.0000;6217.0000;100.0000;0.0000;0.0000;
834;664.09;15058.19;-15058.19;0.0000;6201.0000;6065.0000;6065.0000;97.8068;0.0096;0.0000;
835;664.48;15049.44;-15049.44;0.0000;6063.0000;6279.0000;6279.0000;103.5626;-0.0152;0.0000;
836;664.86;15040.70;-15040.70;0.0000;6029.0000;6227.0000;6227.0000;103.2841;-0.0140;0.0000;
837;665.25;15031.98;-15031.98;0.0000;6095.0000;6121.0000;6121.0000;100.4266;-0.0018;0.0000;
838;665.63;15023.26;-15023.26;0.0000;6043.0000;6231.0000;6231.0000;103.1110;-0.0133;0.0000;
839;666.02;15014.56;-15014.56;0.0000;5921.0000;5933.0000;5933.0000;100.2027;-0.0009;0.0000;
840;666.41;15005.88;-15005.88;0.0000;5983.0000;6159.0000;6159.0000;102.9417;-0.0126;0.0000;
841;666.79;14997.20;-14997.20;0.0000;6111.0000;6017.0000;6017.0000;98.4618;0.0067;0.0000;
842;667.18;14988.53;-14988.53;0.0000;6115.0000;6247.0000;6247.0000;102.1586;-0.0093;0.0000;
843;667.56;14979.88;-14979.88;0.0000;6149.0000;6107.0000;6107.0000;99.3170;0.0030;0.0000;
844;667.95;14971.24;-14971.24;0.0000;6061.0000;5931.0000;5931.0000;97.8551;0.0094;0.0000;
845;668.33;14962.60;-14962.60;0.0000;6011.0000;6087.0000;6087.0000;101.2643;-0.0055;0.0000;
846;668.72;14953.98;-14953.98;0.0000;6225.0000;6243.0000;6243.0000;100.2892;-0.0013;0.0000;
847;669.10;14945.38;-14945.38;0.0000;6035.0000;6159.0000;6159.0000;102.0547;-0.0088;0.0000;
848;669.49;14936.78;-14936.78;0.0000;6107.0000;6187.0000;6187.0000;101.3100;-0.0057;0.0000;
849;669.87;14928.20;-14928.20;0.0000;6005.0000;6119.0000;6119.0000;101.8984;-0.0082;0.0000;
850;670.26;14919.62;-14919.62;0.0000;5975.0000;6249.0000;6249.0000;104.5858;-0.0195;0.0000;
851;670.64;14911.06;-14911.06;0.0000;6017.0000;6159.0000;6159.0000;102.3600;-0.0101;0.0000;
852;671.03;14902.51;-14902.51;0.0000;5951.0000;6185.0000;6185.0000;103.9321;-0.0167;0.0000;
853;671.41;14893.97;-14893.97;0.0000;6069.0000;6179.0000;6179.0000;101.8125;-0.0078;0.0000;
854;671.80;14885.44;-14885.44;0.0000;5977.0000;6149.0000;6149.0000;102.8777;-0.0123;0.0000;
855;672.18;14876.93;-14876.93;0.0000;5947.0000;6133.0000;6133.0000;103.1276;-0.0134;0.0000;
856;672.57;14868.42;-14868.42;0.0000;5913.0000;5827.0000;5827.0000;98.5456;0.0064;0.0000;
857;672.95;14859.93;-14859.93;0.0000;5941.0000;5901.0000;5901.0000;99.3267;0.0029;0.0000;
858;673.34;14851.45;-14851.45;0.0000;6037.0000;5983.0000;5983.0000;99.1055;0.0039;0.0000;
859;673.72;14842.97;-14842.97;0.0000;6105.0000;6075.0000;6075.0000;99.5086;0.0021;0.0000;
860;674.10;14834.51;-14834.51;0.0000;6295.0000;6091.0000;6091.0000;96.7593;0.0143;0.0000;
861;674.49;14826.07;-14826.07;0.0000;5987.0000;5953.0000;5953.0000;99.4321;0.0025;0.0000;
862;674.87;14817.63;-14817.63;0.0000;5811.0000;5915.0000;5915.0000;101.7897;-0.0077;0.0000;
863;675.26;14809.20;-14809.20;0.0000;5909.0000;5961.0000;5961.0000;100.8800;-0.0038;0.0000;
864;675.64;14800.79;-14800.79;0.0000;6081.0000;6041.0000;6041.0000;99.3422;0.0029;0.0000;
865;676.02;14792.38;-14792.38;0.0000;5819.0000;5845.0000;5845.0000;100.4468;-0.0019;0.0000;
866;676.41;14783.99;-14783.99;0.0000;5965.0000;5925.0000;5925.0000;99.3294;0.0029;0.0000;
867;676.79;14775.61;-14775.61;0.0000;5883.0000;6093.0000;6093.0000;103.5696;-0.0152;0.0000;
868;677.17;14767.24;-14767.24;0.0000;5741.0000;6125.0000;6125.0000;106.6887;-0.0281;0.0000;
869;677.56;14758.88;-14758.88;0.0000;5837.0000;5831.0000;5831.0000;99.8972;0.0004;0.0000;
870;677.94;14750.53;-14750.53;0.0000;5913.0000;5823.0000;5823.0000;98.4779;0.0067;0.0000;
871;678.33;14742.19;-14742.19;0.0000;5907.0000;5831.0000;5831.0000;98.7134;0.0056;0.0000;
872;678.71;14733.86;-14733.86;0.0000;5921.0000;5815.0000;5815.0000;98.2098;0.0078;0.0000;
873;679.09;14725.55;-14725.55;0.0000;5841.0000;5807.0000;5807.0000;99.4179;0.0025;0.0000;
874;679.48;14717.24;-14717.24;0.0000;5775.0000;6031.0000;6031.0000;104.4329;-0.0188;0.0000;
875;679.86;14708.95;-14708.95;0.0000;5757.0000;5593.0000;5593.0000;97.1513;0.0126;0.0000;
876;680.24;14700.67;-14700.67;0.0000;5767.0000;5779.0000;5779.0000;100.2081;-0.0009;0.0000;
877;680.62;14692.39;-14692.39;0.0000;5829.0000;5771.0000;5771.0000;99.0050;0.0043;0.0000;
878;681.01;14684.13;-14684.13;0.0000;5637.0000;5783.0000;5783.0000;102.5900;-0.0111;0.0000;
879;681.39;14675.88;-14675.88;0.0000;5703.0000;5569.0000;5569.0000;97.6504;0.0103;0.0000;
880;681.77;14667.64;-14667.64;0.0000;5601.0000;5861.0000;5861.0000;104.6420;-0.0197;0.0000;
881;682.16;14659.41;-14659.41;0.0000;5645.0000;5737.0000;5737.0000;101.6298;-0.0070;0.0000;
882;682.54;14651.20;-14651.20;0.0000;5465.0000;5459.0000;5459.0000;99.8902;0.0005;0.0000;
883;682.92;14642.99;-14642.99;0.0000;5809.0000;5617.0000;5617.0000;96.6948;0.0146;0.0000;
884;683.30;14634.79;-14634.79;0.0000;5601.0000;5725.0000;5725.0000;102.2139;-0.0095;0.0000;
885;683.69;14626.61;-14626.61;0.0000;5459.0000;5611.0000;5611.0000;102.7844;-0.0119;0.0000;
886;684.07;14618.43;-14618.43;0.0000;5675.0000;5757.0000;5757.0000;101.4449;-0.0062;0.0000;
887;684.45;14610.27;-14610.27;0.0000;5339.0000;5703.0000;5703.0000;106.8178;-0.0286;0.0000;
888;684.83;14602.11;-14602.11;0.0000;5555.0000;5483.0000;5483.0000;98.7039;0.0057;0.0000;
889;685.21;14593.97;-14593.97;0.0000;5667.0000;5533.0000;5533.0000;97.6354;0.0104;0.0000;
890;685.60;14585.84;-14585.84;0.0000;5615.0000;5605.0000;5605.0000;99.8219;0.0008;0.0000;
891;685.98;14577.72;-14577.72;0.0000;5465.0000;5555.0000;5555.0000;101.6468;-0.0071;0.0000;
892;686.36;14569.61;-14569.61;0.0000;5371.0000;5637.0000;5637.0000;104.9525;-0.0210;0.0000;
893;686.74;14561.50;-14561.50;0.0000;5309.0000;5593.0000;5593.0000;105.3494;-0.0226;0.0000;
894;687.12;14553.41;-14553.41;0.0000;5333.0000;5643.0000;5643.0000;105.8129;-0.0245;0.0000;
895;687.51;14545.33;-14545.33;0.0000;5297.0000;5481.0000;5481.0000;103.4737;-0.0148;0.0000;
896;687.89;14537.27;-14537.27;0.0000;5339.0000;5475.0000;5475.0000;102.5473;-0.0109;0.0000;
897;688.27;14529.21;-14529.21;0.0000;5277.0000;5447.0000;5447.0000;103.2215;-0.0138;0.0000;
898;688.65;14521.16;-14521.16;0.0000;5281.0000;5527.0000;5527.0000;104.6582;-0.0198;0.0000;
899;689.03;14513.12;-14513.12;0.0000;5391.0000;5555.0000;5555.0000;103.0421;-0.0130;0.0000;
900;689.41;14505.09;-14505.09;0.0000;5381.0000;5527.0000;5527.0000;102.7133;-0.0116;0.0000;
901;689.79;14497.08;-14497.08;0.0000;5363.0000;5483.0000;5483.0000;102.2376;-0.0096;0.0000;
902;690.18;14489.07;-14489.07;0.0000;5297.0000;5333.0000;5333.0000;100.6796;-0.0029;0.0000;
903;690.56;14481.07;-14481.07;0.0000;5333.0000;5357.0000;5357.0000;100.4500;-0.0020;0.0000;
904;690.94;14473.09;-14473.09;0.0000;5063.0000;5297.0000;5297.0000;104.6218;-0.0196;0.0000;
905;691.32;14465.11;-14465.11;0.0000;5273.0000;5227.0000;5227.0000;99.1276;0.0038;0.0000;
906;691.70;14457.15;-14457.15;0.0000;5109.0000;5325.0000;5325.0000;104.2278;-0.0180;0.0000;
907;692.08;14449.19;-14449.19;0.0000;5197.0000;5365.0000;5365.0000;103.2326;-0.0138;0.0000;
908;692.46;14441.25;-14441.25;0.0000;5149.0000;5231.0000;5231.0000;101.5925;-0.0069;0.0000;
909;692.84;14433.31;-14433.31;0.0000;5187.0000;5307.0000;5307.0000;102.3135;-0.0099;0.0000;
910;693.22;14425.39;-14425.39;0.0000;5191.0000;5139.0000;5139.0000;98.9983;0.0044;0.0000;
911;693.60;14417.47;-14417.47;0.0000;5215.0000;5181.0000;5181.0000;99.3480;0.0028;0.0000;
912;693.98;14409.57;-14409.57;0.0000;5233.0000;5103.0000;5103.0000;97.5158;0.0109;0.0000;
913;694.36;14401.68;-14401.68;0.0000;5089.0000;5119.0000;5119.0000;100.5895;-0.0026;0.0000;
914;694.74;14393.79;-14393.79;0.0000;5023.0000;5093.0000;5093.0000;101.3936;-0.0060;0.0000;
915;695.12;14385.92;-14385.92;0.0000;5027.0000;5037.0000;5037.0000;100.1989;-0.0009;0.0000;
916;695.50;14378.05;-14378.05;0.0000;4955.0000;4975.0000;4975.0000;100.4036;-0.0017;0.0000;
917;695.88;14370.20;-14370.20;0.0000;5063.0000;5023.0000;5023.0000;99.2100;0.0034;0.0000;
918;696.26;14362.36;-14362.36;0.0000;5001.0000;5103.0000;5103.0000;102.0396;-0.0088;0.0000;
919;696.64;14354.53;-14354.53;0.0000;4985.0000;5135.0000;5135.0000;103.0090;-0.0129;0.0000;
920;697.02;14346.70;-14346.70;0.0000;5153.0000;5025.0000;5025.0000;97.5160;0.0109;0.0000;
921;697.40;14338.89;-14338.89;0.0000;4907.0000;5005.0000;5005.0000;101.9971;-0.0086;0.0000;
922;697.78;14331.09;-14331.09;0.0000;4983.0000;4945.0000;4945.0000;99.2374;0.0033;0.0000;
923;698.16;14323.29;-14323.29;0.0000;4939.0000;4997.0000;4997.0000;101.1743;-0.0051;0.0000;
924;698.54;14315.51;-14315.51;0.0000;4987.0000;5003.0000;5003.0000;100.3208;-0.0014;0.0000;
925;698.92;14307.74;-14307.74;0.0000;4973.0000;4795.0000;4795.0000;96.4207;0.0158;0.0000;
926;699.30;14299.97;-14299.97;0.0000;4983.0000;4859.0000;4859.0000;97.5115;0.0109;0.0000;
927;699.68;14292.22;-14292.22;0.0000;4993.0000;4981.0000;4981.0000;99.7597;0.0010;0.0000;
928;700.06;14284.48;-14284.48;0.0000;4897.0000;4993.0000;4993.0000;101.9604;-0.0084;0.0000;
929;700.44;14276.74;-14276.74;0.0000;4897.0000;4939.0000;4939.0000;100.8577;-0.0037;0.0000;
930;700.82;14269.02;-14269.02;0.0000;4947.0000;4919.0000;4919.0000;99.4340;0.0025;0.0000;
931;701.20;14261.30;-14261.30;0.0000;4839.0000;4921.0000;4921.0000;101.6946;-0.0073;0.0000;
932;701.58;14253.60;-14253.60;0.0000;4817.0000;5055.0000;5055.0000;104.9408;-0.0209;0.0000;
933;701.96;14245.91;-14245.91;0.0000;4741.0000;4921.0000;4921.0000;103.7967;-0.0162;0.0000;
934;702.33;14238.22;-14238.22;0.0000;4881.0000;4937.0000;4937.0000;101.1473;-0.0050;0.0000;
935;702.71;14230.55;-14230.55;0.0000;4739.0000;4871.0000;4871.0000;102.7854;-0.0119;0.0000;
936;703.09;14222.88;-14222.88;0.0000;4787.0000;4769.0000;4769.0000;99.6240;0.0016;0.0000;
937;703.47;14215.23;-14215.23;0.0000;4745.0000;4789.0000;4789.0000;100.9273;-0.0040;0.0000;
938;703.85;14207.58;-14207.58;0.0000;4781.0000;4861.0000;4861.0000;101.6733;-0.0072;0.0000;
939;704.23;14199.94;-14199.94;0.0000;4707.0000;4781.0000;4781.0000;101.5721;-0.0068;0.0000;
940;704.61;14192.32;-14192.32;0.0000;4675.0000;4823.0000;4823.0000;103.1658;-0.0135;0.0000;
941;704.98;14184.70;-14184.70;0.0000;4823.0000;4819.0000;4819.0000;99.9171;0.0004;0.0000;
942;705.36;14177.09;-14177.09;0.0000;4593.0000;4765.0000;4765.0000;103.7448;-0.0160;0.0000;
943;705.74;14169.50;-14169.50;0.0000;4765.0000;4825.0000;4825.0000;101.2592;-0.0054;0.0000;
944;706.12;14161.91;-14161.91;0.0000;4749.0000;4713.0000;4713.0000;99.2419;0.0033;0.0000;
945;706.50;14154.33;-14154.33;0.0000;4695.0000;4741.0000;4741.0000;100.9798;-0.0042;0.0000;
946;706.88;14146.76;-14146.76;0.0000;4649.0000;4613.0000;4613.0000;99.2256;0.0034;0.0000;
947;707.25;14139.20;-14139.20;0.0000;4817.0000;4719.0000;4719.0000;97.9655;0.0089;0.0000;
948;707.63;14131.65;-14131.65;0.0000;4697.0000;4725.0000;4725.0000;100.5961;-0.0026;0.0000;
949;708.01;14124.11;-14124.11;0.0000;4709.0000;4669.0000;4669.0000;99.1506;0.0037;0.0000;
950;708.39;14116.58;-14116.58;0.0000;4811.0000;4617.0000;4617.0000;95.9676;0.0179;0.0000;
951;708.76;14109.06;-14109.06;0.0000;4737.0000;4713.0000;4713.0000;99.4934;0.0022;0.0000;
952;709.14;14101.55;-14101.55;0.0000;4491.0000;4767.0000;4767.0000;106.1456;-0.0259;0.0000;
953;709.52;14094.05;-14094.05;0.0000;4503.0000;4743.0000;4743.0000;105.3298;-0.0226;0.0000;
954;709.90;14086.55;-14086.55;0.0000;4555.0000;4665.0000;4665.0000;102.4149;-0.0104;0.0000;
955;710.27;14079.07;-14079.07;0.0000;4595.0000;4793.0000;4793.0000;104.3090;-0.0183;0.0000;
956;710.65;14071.60;-14071.60;0.0000;4595.0000;4537.0000;4537.0000;98.7378;0.0055;0.0000;
957;711.03;14064.13;-14064.13;0.0000;4641.0000;4619.0000;4619.0000;99.5260;0.0021;0.0000;
958;711.41;14056.68;-14056.68;0.0000;4617.0000;4625.0000;4625.0000;100.1733;-0.0008;0.0000;
959;711.78;14049.23;-14049.23;0.0000;4469.0000;4677.0000;4677.0000;104.6543;-0.0198;0.0000;
960;712.16;14041.79;-14041.79;0.0000;4549.0000;4645.0000;4645.0000;102.1104;-0.0091;0.0000;
961;712.54;14034.36;-14034.36;0.0000;4689.0000;4725.0000;4725.0000;100.7678;-0.0033;0.0000;
962;712.91;14026.95;-14026.95;0.0000;4441.0000;4529.0000;4529.0000;101.9815;-0.0085;0.0000;
963;713.29;14019.54;-14019.54;0.0000;4315.0000;4517.0000;4517.0000;104.6813;-0.0199;0.0000;
964;713.67;14012.14;-14012.14;0.0000;4393.0000;4585.0000;4585.0000;104.3706;-0.0186;0.0000;
965;714.04;14004.75;-14004.75;0.0000;4537.0000;4619.0000;4619.0000;101.8074;-0.0078;0.0000;
966;714.42;13997.37;-13997.37;0.0000;4501.0000;4501.0000;4501.0000;100.0000;0.0000;0.0000;
967;714.80;13989.99;-13989.99;0.0000;4393.0000;4497.0000;4497.0000;102.3674;-0.0102;0.0000;
968;715.17;13982.63;-13982.63;0.0000;4323.0000;4515.0000;4515.0000;104.4414;-0.0189;0.0000;
969;715.55;13975.28;-13975.28;0.0000;4501.0000;4501.0000;4501.0000;100.0000;0.0000;0.0000;
970;715.93;13967.93;-13967.93;0.0000;4345.0000;4361.0000;4361.0000;100.3682;-0.0016;0.0000;
971;716.30;13960.60;-13960.60;0.0000;4449.0000;4343.0000;4343.0000;97.6174;0.0105;0.0000;
972;716.68;13953.27;-13953.27;0.0000;4339.0000;4499.0000;4499.0000;103.6875;-0.0157;0.0000;
973;717.05;13945.96;-13945.96;0.0000;4425.0000;4243.0000;4243.0000;95.8870;0.0182;0.0000;
974;717.43;13938.65;-13938.65;0.0000;4289.0000;4417.0000;4417.0000;102.9844;-0.0128;0.0000;
975;717.81;13931.35;-13931.35;0.0000;4293.0000;4231.0000;4231.0000;98.5558;0.0063;0.0000;
976;718.18;13924.06;-13924.06;0.0000;4285.0000;4457.0000;4457.0000;104.0140;-0.0171;0.0000;
977;718.56;13916.78;-13916.78;0.0000;4171.0000;4331.0000;4331.0000;103.8360;-0.0163;0.0000;
978;718.93;13909.51;-13909.51;0.0000;4203.0000;4241.0000;4241.0000;100.9041;-0.0039;0.0000;
979;719.31;13902.24;-13902.24;0.0000;4261.0000;4281.0000;4281.0000;100.4694;-0.0020;0.0000;
980;719.68;13894.99;-13894.99;0.0000;4417.0000;4429.0000;4429.0000;100.2717;-0.0012;0.0000;
981;720.06;13887.74;-13887.74;0.0000;4315.0000;4349.0000;4349.0000;100.7879;-0.0034;0.0000;
982;720.43;13880.51;-13880.51;0.0000;4235.0000;4137.0000;4137.0000;97.6860;0.0102;0.0000;
983;720.81;13873.28;-13873.28;0.0000;4297.0000;4227.0000;4227.0000;98.3710;0.0071;0.0000;
984;721.19;13866.06;-13866.06;0.0000;4339.0000;4341.0000;4341.0000;100.0461;-0.0002;0.0000;
985;721.56;13858.85;-13858.85;0.0000;4263.0000;4313.0000;4313.0000;101.1729;-0.0051;0.0000;
986;721.94;13851.65;-13851.65;0.0000;4243.0000;4297.0000;4297.0000;101.2727;-0.0055;0.0000;
987;722.31;13844.46;-13844.46;0.0000;4293.0000;4239.0000;4239.0000;98.7421;0.0055;0.0000;
988;722.69;13837.28;-13837.28;0.0000;4109.0000;4155.0000;4155.0000;101.1195;-0.0048;0.0000;
989;723.06;13830.11;-13830.11;0.0000;4109.0000;4297.0000;4297.0000;104.5753;-0.0194;0.0000;
990;723.43;13822.94;-13822.94;0.0000;4129.0000;4137.0000;4137.0000;100.1938;-0.0008;0.0000;
991;723.81;13815.79;-13815.79;0.0000;4123.0000;4175.0000;4175.0000;101.2612;-0.0054;0.0000;
992;724.18;13808.64;-13808.64;0.0000;4121.0000;4223.0000;4223.0000;102.4751;-0.0106;0.0000;
993;724.56;13801.50;-13801.50;0.0000;4269.0000;4243.0000;4243.0000;99.3910;0.0027;0.0000;
994;724.93;13794.37;-13794.37;0.0000;4275.0000;4253.0000;4253.0000;99.4854;0.0022;0.0000;
995;725.31;13787.25;-13787.25;0.0000;4089.0000;4177.0000;4177.0000;102.1521;-0.0092;0.0000;
996;725.68;13780.14;-13780.14;0.0000;4181.0000;4281.0000;4281.0000;102.3918;-0.0103;0.0000;
997;726.06;13773.03;-13773.03;0.0000;4209.0000;4263.0000;4263.0000;101.2830;-0.0055;0.0000;
998;726.43;13765.94;-13765.94;0.0000;4289.0000;4345.0000;4345.0000;101.3057;-0.0056;0.0000;
999;726.80;13758.85;-13758.85;0.0000;4143.0000;4181.0000;4181.0000;100.9172;-0.0040;0.0000;
1000;727.18;13751.78;-13751.78;0.0000;4151.0000;4149.0000;4149.0000;99.9518;0.0002;0.0000;
1001;727.55;13744.71;-13744.71;0.0000;4029.0000;4197.0000;4197.0000;104.1698;-0.0177;0.0000;
1002;727.93;13737.65;-13737.65;0.0000;4025.0000;4143.0000;4143.0000;102.9317;-0.0125;0.0000;
1003;728.30;13730.60;-13730.60;0.0000;4137.0000;4153.0000;4153.0000;100.3868;-0.0017;0.0000;
1004;728.67;13723.55;-13723.55;0.0000;4061.0000;4183.0000;4183.0000;103.0042;-0.0129;0.0000;
1005;729.05;13716.52;-13716.52;0.0000;4061.0000;3995.0000;3995.0000;98.3748;0.0071;0.0000;
1006;729.42;13709.49;-13709.49;0.0000;4049.0000;3945.0000;3945.0000;97.4315;0.0113;0.0000;
1007;729.80;13702.48;-13702.48;0.0000;3955.0000;3973.0000;3973.0000;100.4551;-0.0020;0.0000;
1008;730.17;13695.47;-13695.47;0.0000;3965.0000;3969.0000;3969.0000;100.1009;-0.0004;0.0000;
1009;730.54;13688.47;-13688.47;0.0000;3905.0000;4169.0000;4169.0000;106.7606;-0.0284;0.0000;
1010;730.92;13681.48;-13681.48;0.0000;3973.0000;4079.0000;4079.0000;102.6680;-0.0114;0.0000;
1011;731.29;13674.49;-13674.49;0.0000;3909.0000;4197.0000;4197.0000;107.3676;-0.0309;0.0000;
1012;731.66;13667.52;-13667.52;0.0000;4045.0000;4097.0000;4097.0000;101.2855;-0.0055;0.0000;
1013;732.03;13660.55;-13660.55;0.0000;4087.0000;3999.0000;3999.0000;97.8468;0.0095;0.0000;
1014;732.41;13653.60;-13653.60;0.0000;3895.0000;4005.0000;4005.0000;102.8241;-0.0121;0.0000;
1015;732.78;13646.65;-13646.65;0.0000;4029.0000;3879.0000;3879.0000;96.2770;0.0165;0.0000;
1016;733.15;13639.71;-13639.71;0.0000;3941.0000;4025.0000;4025.0000;102.1314;-0.0092;0.0000;
1017;733.53;13632.77;-13632.77;0.0000;3915.0000;4025.0000;4025.0000;102.8097;-0.0120;0.0000;
1018;733.90;13625.85;-13625.85;0.0000;3969.0000;3941.0000;3941.0000;99.2945;0.0031;0.0000;
1019;734.27;13618.93;-13618.93;0.0000;3985.0000;3955.0000;3955.0000;99.2472;0.0033;0.0000;
1020;734.64;13612.03;-13612.03;0.0000;4039.0000;3863.0000;3863.0000;95.6425;0.0193;0.0000;
1021;735.02;13605.13;-13605.13;0.0000;3733.0000;3897.0000;3897.0000;104.3932;-0.0187;0.0000;
1022;735.39;13598.24;-13598.24;0.0000;3801.0000;3855.0000;3855.0000;101.4207;-0.0061;0.0000;
1023;735.76;13591.36;-13591.36;0.0000;3809.0000;3847.0000;3847.0000;100.9976;-0.0043;0.0000;
1024;736.13;13584.48;-13584.48;0.0000;3987.0000;3955.0000;3955.0000;99.1974;0.0035;0.0000;
1025;736.51;13577.62;-13577.62;0.0000;3861.0000;3939.0000;3939.0000;102.0202;-0.0087;0.0000;
1026;736.88;13570.76;-13570.76;0.0000;3819.0000;3875.0000;3875.0000;101.4664;-0.0063;0.0000;
1027;737.25;13563.91;-13563.91;0.0000;3707.0000;3795.0000;3795.0000;102.3739;-0.0102;0.0000;
1028;737.62;13557.07;-13557.07;0.0000;3713.0000;3687.0000;3687.0000;99.2998;0.0031;0.0000;
1029;737.99;13550.24;-13550.24;0.0000;3633.0000;3623.0000;3623.0000;99.7247;0.0012;0.0000;
1030;738.37;13543.41;-13543.41;0.0000;3659.0000;3723.0000;3723.0000;101.7491;-0.0075;0.0000;
1031;738.74;13536.60;-13536.60;0.0000;3733.0000;3801.0000;3801.0000;101.8216;-0.0078;0.0000;
1032;739.11;13529.79;-13529.79;0.0000;3607.0000;3825.0000;3825.0000;106.0438;-0.0255;0.0000;
1033;739.48;13522.99;-13522.99;0.0000;3685.0000;3755.0000;3755.0000;101.8996;-0.0082;0.0000;
1034;739.85;13516.20;-13516.20;0.0000;3661.0000;3773.0000;3773.0000;103.0593;-0.0131;0.0000;
1035;740.22;13509.42;-13509.42;0.0000;3581.0000;3595.0000;3595.0000;100.3910;-0.0017;0.0000;
1036;740.60;13502.64;-13502.64;0.0000;3487.0000;3537.0000;3537.0000;101.4339;-0.0062;0.0000;
1037;740.97;13495.87;-13495.87;0.0000;3665.0000;3597.0000;3597.0000;98.1446;0.0081;0.0000;
1038;741.34;13489.11;-13489.11;0.0000;3713.0000;3603.0000;3603.0000;97.0374;0.0131;0.0000;
1039;741.71;13482.36;-13482.36;0.0000;3579.0000;3815.0000;3815.0000;106.5940;-0.0277;0.0000;
1040;742.08;13475.62;-13475.62;0.0000;3615.0000;3691.0000;3691.0000;102.1024;-0.0090;0.0000;
1041;742.45;13468.89;-13468.89;0.0000;3589.0000;3603.0000;3603.0000;100.3901;-0.0017;0.0000;
1042;742.82;13462.16;-13462.16;0.0000;3579.0000;3599.0000;3599.0000;100.5588;-0.0024;0.0000;
1043;743.19;13455.44;-13455.44;0.0000;3665.0000;3625.0000;3625.0000;98.9086;0.0048;0.0000;
1044;743.56;13448.73;-13448.73;0.0000;3561.0000;3615.0000;3615.0000;101.5164;-0.0065;0.0000;
1045;743.94;13442.03;-13442.03;0.0000;3543.0000;3581.0000;3581.0000;101.0725;-0.0046;0.0000;
1046;744.31;13435.33;-13435.33;0.0000;3433.0000;3543.0000;3543.0000;103.2042;-0.0137;0.0000;
1047;744.68;13428.65;-13428.65;0.0000;3585.0000;3549.0000;3549.0000;98.9958;0.0044;0.0000;
1048;745.05;13421.97;-13421.97;0.0000;3505.0000;3531.0000;3531.0000;100.7418;-0.0032;0.0000;
1049;745.42;13415.30;-13415.30;0.0000;3691.0000;3521.0000;3521.0000;95.3942;0.0205;0.0000;
1050;745.79;13408.64;-13408.64;0.0000;3513.0000;3531.0000;3531.0000;100.5124;-0.0022;0.0000;
1051;746.16;13401.98;-13401.98;0.0000;3523.0000;3533.0000;3533.0000;100.2838;-0.0012;0.0000;
1052;746.53;13395.33;-13395.33;0.0000;3401.0000;3501.0000;3501.0000;102.9403;-0.0126;0.0000;
1053;746.90;13388.70;-13388.70;0.0000;3421.0000;3529.0000;3529.0000;103.1570;-0.0135;0.0000;
1054;747.27;13382.06;-13382.06;0.0000;3463.0000;3463.0000;3463.0000;100.0000;0.0000;0.0000;
1055;747.64;13375.44;-13375.44;0.0000;3273.0000;3525.0000;3525.0000;107.6994;-0.0322;0.0000;
1056;748.01;13368.83;-13368.83;0.0000;3203.0000;3327.0000;3327.0000;103.8714;-0.0165;0.0000;
1057;748.38;13362.22;-13362.22;0.0000;3301.0000;3361.0000;3361.0000;101.8176;-0.0078;0.0000;
1058;748.75;13355.62;-13355.62;0.0000;3283.0000;3301.0000;3301.0000;100.5483;-0.0024;0.0000;
1059;749.12;13349.03;-13349.03;0.0000;3313.0000;3279.0000;3279.0000;98.9737;0.0045;0.0000;
1060;749.49;13342.44;-13342.44;0.0000;3173.0000;3325.0000;3325.0000;104.7904;-0.0203;0.0000;
1061;749.86;13335.87;-13335.87;0.0000;3177.0000;3409.0000;3409.0000;107.3025;-0.0306;0.0000;
1062;750.23;13329.30;-13329.30;0.0000;3365.0000;3363.0000;3363.0000;99.9406;0.0003;0.0000;
1063;750.60;13322.74;-13322.74;0.0000;3331.0000;3301.0000;3301.0000;99.0994;0.0039;0.0000;
1064;750.97;13316.19;-13316.19;0.0000;3165.0000;3173.0000;3173.0000;100.2528;-0.0011;0.0000;
1065;751.34;13309.64;-13309.64;0.0000;3151.0000;3361.0000;3361.0000;106.6646;-0.0280;0.0000;
1066;751.70;13303.10;-13303.10;0.0000;3241.0000;3315.0000;3315.0000;102.2832;-0.0098;0.0000;
1067;752.07;13296.57;-13296.57;0.0000;3205.0000;3221.0000;3221.0000;100.4992;-0.0022;0.0000;
1068;752.44;13290.05;-13290.05;0.0000;3227.0000;3219.0000;3219.0000;99.7521;0.0011;0.0000;
1069;752.81;13283.54;-13283.54;0.0000;3065.0000;3211.0000;3211.0000;104.7635;-0.0202;0.0000;
1070;753.18;13277.03;-13277.03;0.0000;3125.0000;3189.0000;3189.0000;102.0480;-0.0088;0.0000;
1071;753.55;13270.53;-13270.53;0.0000;3023.0000;3173.0000;3173.0000;104.9620;-0.0210;0.0000;
1072;753.92;13264.04;-13264.04;0.0000;3117.0000;3181.0000;3181.0000;102.0533;-0.0088;0.0000;
1073;754.29;13257.56;-13257.56;0.0000;3197.0000;3157.0000;3157.0000;98.7488;0.0055;0.0000;
1074;754.66;13251.08;-13251.08;0.0000;3229.0000;3225.0000;3225.0000;99.8761;0.0005;0.0000;
1075;755.02;13244.61;-13244.61;0.0000;3063.0000;3007.0000;3007.0000;98.1717;0.0080;0.0000;
1076;755.39;13238.15;-13238.15;0.0000;3059.0000;3097.0000;3097.0000;101.2422;-0.0054;0.0000;
1077;755.76;13231.70;-13231.70;0.0000;3053.0000;3011.0000;3011.0000;98.6243;0.0060;0.0000;
1078;756.13;13225.26;-13225.26;0.0000;3075.0000;3043.0000;3043.0000;98.9593;0.0045;0.0000;
1079;756.50;13218.82;-13218.82;0.0000;3085.0000;3035.0000;3035.0000;98.3793;0.0071;0.0000;
1080;756.87;13212.39;-13212.39;0.0000;2985.0000;3031.0000;3031.0000;101.5410;-0.0066;0.0000;
1081;757.23;13205.96;-13205.96;0.0000;2949.0000;2977.0000;2977.0000;100.9495;-0.0041;0.0000;
1082;757.60;13199.55;-13199.55;0.0000;2983.0000;3081.0000;3081.0000;103.2853;-0.0140;0.0000;
1083;757.97;13193.14;-13193.14;0.0000;2961.0000;3115.0000;3115.0000;105.2009;-0.0220;0.0000;
1084;758.34;13186.74;-13186.74;0.0000;2839.0000;2855.0000;2855.0000;100.5636;-0.0024;0.0000;
1085;758.71;13180.35;-13180.35;0.0000;2811.0000;2927.0000;2927.0000;104.1266;-0.0176;0.0000;
1086;759.07;13173.96;-13173.96;0.0000;3023.0000;2955.0000;2955.0000;97.7506;0.0099;0.0000;
1087;759.44;13167.58;-13167.58;0.0000;2953.0000;3043.0000;3043.0000;103.0477;-0.0130;0.0000;
1088;759.81;13161.21;-13161.21;0.0000;2897.0000;2945.0000;2945.0000;101.6569;-0.0071;0.0000;
1089;760.18;13154.85;-13154.85;0.0000;2973.0000;2967.0000;2967.0000;99.7982;0.0009;0.0000;
1090;760.54;13148.50;-13148.50;0.0000;3003.0000;2835.0000;2835.0000;94.4056;0.0250;0.0000;
1091;760.91;13142.15;-13142.15;0.0000;2843.0000;2879.0000;2879.0000;101.2663;-0.0055;0.0000;
1092;761.28;13135.81;-13135.81;0.0000;2855.0000;2851.0000;2851.0000;99.8599;0.0006;0.0000;
1093;761.65;13129.47;-13129.47;0.0000;2877.0000;2883.0000;2883.0000;100.2086;-0.0009;0.0000;
1094;762.01;13123.15;-13123.15;0.0000;2855.0000;2867.0000;2867.0000;100.4203;-0.0018;0.0000;
1095;762.38;13116.83;-13116.83;0.0000;2861.0000;2829.0000;2829.0000;98.8815;0.0049;0.0000;
1096;762.75;13110.52;-13110.52;0.0000;2769.0000;2931.0000;2931.0000;105.8505;-0.0247;0.0000;
1097;763.11;13104.21;-13104.21;0.0000;2785.0000;2831.0000;2831.0000;101.6517;-0.0071;0.0000;
1098;763.48;13097.92;-13097.92;0.0000;2827.0000;2773.0000;2773.0000;98.0898;0.0084;0.0000;
1099;763.85;13091.63;-13091.63;0.0000;2845.0000;2709.0000;2709.0000;95.2197;0.0213;0.0000;
1100;764.21;13085.35;-13085.35;0.0000;2731.0000;2707.0000;2707.0000;99.1212;0.0038;0.0000;
1101;764.58;13079.07;-13079.07;0.0000;2715.0000;2745.0000;2745.0000;101.1050;-0.0048;0.0000;
1102;764.95;13072.80;-13072.80;0.0000;2675.0000;2723.0000;2723.0000;101.7944;-0.0077;0.0000;
1103;765.31;13066.54;-13066.54;0.0000;2715.0000;2759.0000;2759.0000;101.6206;-0.0070;0.0000;
1104;765.68;13060.29;-13060.29;0.0000;2659.0000;2669.0000;2669.0000;100.3761;-0.0016;0.0000;
1105;766.05;13054.04;-13054.04;0.0000;2609.0000;2723.0000;2723.0000;104.3695;-0.0186;0.0000;
1106;766.41;13047.81;-13047.81;0.0000;2597.0000;2797.0000;2797.0000;107.7012;-0.0322;0.0000;
1107;766.78;13041.58;-13041.58;0.0000;2561.0000;2653.0000;2653.0000;103.5923;-0.0153;0.0000;
1108;767.14;13035.35;-13035.35;0.0000;2643.0000;2717.0000;2717.0000;102.7998;-0.0120;0.0000;
1109;767.51;13029.13;-13029.13;0.0000;2557.0000;2703.0000;2703.0000;105.7098;-0.0241;0.0000;
1110;767.88;13022.92;-13022.92;0.0000;2583.0000;2549.0000;2549.0000;98.6837;0.0058;0.0000;
1111;768.24;13016.72;-13016.72;0.0000;2591.0000;2611.0000;2611.0000;100.7719;-0.0033;0.0000;
1112;768.61;13010.53;-13010.53;0.0000;2625.0000;2603.0000;2603.0000;99.1619;0.0037;0.0000;
1113;768.97;13004.34;-13004.34;0.0000;2599.0000;2655.0000;2655.0000;102.1547;-0.0093;0.0000;
1114;769.34;12998.16;-12998.16;0.0000;2533.0000;2703.0000;2703.0000;106.7114;-0.0282;0.0000;
1115;769.71;12991.98;-12991.98;0.0000;2603.0000;2681.0000;2681.0000;102.9965;-0.0128;0.0000;
1116;770.07;12985.82;-12985.82;0.0000;2519.0000;2665.0000;2665.0000;105.7960;-0.0245;0.0000;
1117;770.44;12979.66;-12979.66;0.0000;2585.0000;2597.0000;2597.0000;100.4642;-0.0020;0.0000;
1118;770.80;12973.50;-12973.50;0.0000;2447.0000;2477.0000;2477.0000;101.2260;-0.0053;0.0000;
1119;771.17;12967.36;-12967.36;0.0000;2445.0000;2585.0000;2585.0000;105.7260;-0.0242;0.0000;
1120;771.53;12961.22;-12961.22;0.0000;2419.0000;2397.0000;2397.0000;99.0905;0.0040;0.0000;
1121;771.90;12955.09;-12955.09;0.0000;2337.0000;2641.0000;2641.0000;113.0081;-0.0531;0.0000;
1122;772.26;12948.96;-12948.96;0.0000;2543.0000;2603.0000;2603.0000;102.3594;-0.0101;0.0000;
1123;772.63;12942.85;-12942.85;0.0000;2411.0000;2381.0000;2381.0000;98.7557;0.0054;0.0000;
1124;772.99;12936.74;-12936.74;0.0000;2435.0000;2593.0000;2593.0000;106.4887;-0.0273;0.0000;
1125;773.36;12930.63;-12930.63;0.0000;2377.0000;2405.0000;2405.0000;101.1780;-0.0051;0.0000;
1126;773.72;12924.54;-12924.54;0.0000;2263.0000;2485.0000;2485.0000;109.8100;-0.0406;0.0000;
1127;774.09;12918.45;-12918.45;0.0000;2441.0000;2569.0000;2569.0000;105.2438;-0.0222;0.0000;
1128;774.45;12912.36;-12912.36;0.0000;2519.0000;2397.0000;2397.0000;95.1568;0.0216;0.0000;
1129;774.82;12906.29;-12906.29;0.0000;2469.0000;2347.0000;2347.0000;95.0587;0.0220;0.0000;
1130;775.18;12900.22;-12900.22;0.0000;2455.0000;2509.0000;2509.0000;102.1996;-0.0094;0.0000;
1131;775.54;12894.16;-12894.16;0.0000;2483.0000;2465.0000;2465.0000;99.2751;0.0032;0.0000;
1132;775.91;12888.10;-12888.10;0.0000;2417.0000;2299.0000;2299.0000;95.1179;0.0217;0.0000;
1133;776.27;12882.06;-12882.06;0.0000;2429.0000;2443.0000;2443.0000;100.5764;-0.0025;0.0000;
1134;776.64;12876.02;-12876.02;0.0000;2337.0000;2329.0000;2329.0000;99.6577;0.0015;0.0000;
1135;777.00;12869.98;-12869.98;0.0000;2451.0000;2337.0000;2337.0000;95.3488;0.0207;0.0000;
1136;777.37;12863.95;-12863.95;0.0000;2321.0000;2395.0000;2395.0000;103.1883;-0.0136;0.0000;
1137;777.73;12857.93;-12857.93;0.0000;2373.0000;2349.0000;2349.0000;98.9886;0.0044;0.0000;
1138;778.09;12851.92;-12851.92;0.0000;2315.0000;2287.0000;2287.0000;98.7905;0.0053;0.0000;
1139;778.46;12845.91;-12845.91;0.0000;2363.0000;2337.0000;2337.0000;98.8997;0.0048;0.0000;
1140;778.82;12839.91;-12839.91;0.0000;2183.0000;2129.0000;2129.0000;97.5263;0.0109;0.0000;
1141;779.19;12833.92;-12833.92;0.0000;2167.0000;2331.0000;2331.0000;107.5681;-0.0317;0.0000;
1142;779.55;12827.94;-12827.94;0.0000;2249.0000;2309.0000;2309.0000;102.6679;-0.0114;0.0000;
1143;779.91;12821.96;-12821.96;0.0000;2397.0000;2237.0000;2237.0000;93.3250;0.0300;0.0000;
1144;780.28;12815.98;-12815.98;0.0000;2185.0000;2185.0000;2185.0000;100.0000;0.0000;0.0000;
1145;780.64;12810.02;-12810.02;0.0000;2269.0000;2319.0000;2319.0000;102.2036;-0.0095;0.0000;
1146;781.00;12804.06;-12804.06;0.0000;2191.0000;2217.0000;2217.0000;101.1867;-0.0051;0.0000;
1147;781.37;12798.11;-12798.11;0.0000;2095.0000;2235.0000;2235.0000;106.6826;-0.0281;0.0000;
1148;781.73;12792.16;-12792.16;0.0000;2069.0000;2131.0000;2131.0000;102.9966;-0.0128;0.0000;
1149;782.09;12786.22;-12786.22;0.0000;2081.0000;2201.0000;2201.0000;105.7665;-0.0243;0.0000;
1150;782.45;12780.29;-12780.29;0.0000;2073.0000;2155.0000;2155.0000;103.9556;-0.0168;0.0000;
1151;782.82;12774.37;-12774.37;0.0000;2151.0000;2307.0000;2307.0000;107.2524;-0.0304;0.0000;
1152;783.18;12768.45;-12768.45;0.0000;2157.0000;2291.0000;2291.0000;106.2123;-0.0262;0.0000;
1153;783.54;12762.54;-12762.54;0.0000;2153.0000;2257.0000;2257.0000;104.8305;-0.0205;0.0000;
1154;783.91;12756.63;-12756.63;0.0000;2027.0000;2223.0000;2223.0000;109.6695;-0.0401;0.0000;
1155;784.27;12750.73;-12750.73;0.0000;2101.0000;2247.0000;2247.0000;106.9491;-0.0292;0.0000;
1156;784.63;12744.84;-12744.84;0.0000;2007.0000;2145.0000;2145.0000;106.8759;-0.0289;0.0000;
1157;784.99;12738.95;-12738.95;0.0000;1953.0000;2173.0000;2173.0000;111.2647;-0.0464;0.0000;
1158;785.36;12733.08;-12733.08;0.0000;2059.0000;2145.0000;2145.0000;104.1768;-0.0178;0.0000;
1159;785.72;12727.20;-12727.20;0.0000;1985.0000;2205.0000;2205.0000;111.0831;-0.0456;0.0000;
1160;786.08;12721.34;-12721.34;0.0000;1989.0000;2087.0000;2087.0000;104.9271;-0.0209;0.0000;
1161;786.44;12715.48;-12715.48;0.0000;1995.0000;2001.0000;2001.0000;100.3008;-0.0013;0.0000;
1162;786.81;12709.63;-12709.63;0.0000;1973.0000;2001.0000;2001.0000;101.4192;-0.0061;0.0000;
1163;787.17;12703.78;-12703.78;0.0000;1903.0000;1891.0000;1891.0000;99.3694;0.0027;0.0000;
1164;787.53;12697.94;-12697.94;0.0000;1941.0000;2055.0000;2055.0000;105.8733;-0.0248;0.0000;
1165;787.89;12692.11;-12692.11;0.0000;2013.0000;2099.0000;2099.0000;104.2722;-0.0182;0.0000;
1166;788.25;12686.28;-12686.28;0.0000;2005.0000;2043.0000;2043.0000;101.8953;-0.0082;0.0000;
1167;788.61;12680.47;-12680.47;0.0000;1909.0000;2033.0000;2033.0000;106.4955;-0.0273;0.0000;
1168;788.98;12674.65;-12674.65;0.0000;2039.0000;1971.0000;1971.0000;96.6650;0.0147;0.0000;
1169;789.34;12668.85;-12668.85;0.0000;1987.0000;2049.0000;2049.0000;103.1203;-0.0133;0.0000;
1170;789.70;12663.05;-12663.05;0.0000;1963.0000;2109.0000;2109.0000;107.4376;-0.0312;0.0000;
1171;790.06;12657.25;-12657.25;0.0000;2021.0000;1979.0000;1979.0000;97.9218;0.0091;0.0000;
1172;790.42;12651.47;-12651.47;0.0000;1897.0000;2043.0000;2043.0000;107.6964;-0.0322;0.0000;
1173;790.78;12645.69;-12645.69;0.0000;2041.0000;1967.0000;1967.0000;96.3743;0.0160;0.0000;
1174;791.14;12639.91;-12639.91;0.0000;1891.0000;1943.0000;1943.0000;102.7499;-0.0118;0.0000;
1175;791.51;12634.14;-12634.14;0.0000;1871.0000;1969.0000;1969.0000;105.2378;-0.0222;0.0000;
1176;791.87;12628.38;-12628.38;0.0000;1985.0000;1985.0000;1985.0000;100.0000;0.0000;0.0000;
1177;792.23;12622.63;-12622.63;0.0000;2029.0000;1979.0000;1979.0000;97.5357;0.0108;0.0000;
1178;792.59;12616.88;-12616.88;0.0000;1983.0000;2025.0000;2025.0000;102.1180;-0.0091;0.0000;
1179;792.95;12611.14;-12611.14;0.0000;2005.0000;2087.0000;2087.0000;104.0898;-0.0174;0.0000;
1180;793.31;12605.40;-12605.40;0.0000;2021.0000;2157.0000;2157.0000;106.7293;-0.0283;0.0000;
1181;793.67;12599.68;-12599.68;0.0000;2121.0000;2129.0000;2129.0000;100.3772;-0.0016;0.0000;
1182;794.03;12593.95;-12593.95;0.0000;2067.0000;2093.0000;2093.0000;101.2579;-0.0054;0.0000;
1183;794.39;12588.24;-12588.24;0.0000;2053.0000;2089.0000;2089.0000;101.7535;-0.0075;0.0000;
1184;794.75;12582.53;-12582.53;0.0000;1969.0000;2065.0000;2065.0000;104.8756;-0.0207;0.0000;
1185;795.11;12576.82;-12576.82;0.0000;1885.0000;2079.0000;2079.0000;110.2918;-0.0425;0.0000;
1186;795.47;12571.13;-12571.13;0.0000;1925.0000;1989.0000;1989.0000;103.3247;-0.0142;0.0000;
1187;795.83;12565.44;-12565.44;0.0000;1975.0000;1991.0000;1991.0000;100.8101;-0.0035;0.0000;
1188;796.19;12559.75;-12559.75;0.0000;2051.0000;2061.0000;2061.0000;100.4876;-0.0021;0.0000;
1189;796.55;12554.07;-12554.07;0.0000;2063.0000;2063.0000;2063.0000;100.0000;0.0000;0.0000;
1190;796.91;12548.40;-12548.40;0.0000;2133.0000;2129.0000;2129.0000;99.8125;0.0008;0.0000;
1191;797.27;12542.74;-12542.74;0.0000;2005.0000;2137.0000;2137.0000;106.5835;-0.0277;0.0000;
1192;797.63;12537.08;-12537.08;0.0000;2085.0000;2113.0000;2113.0000;101.3429;-0.0058;0.0000;
1193;797.99;12531.42;-12531.42;0.0000;1989.0000;2103.0000;2103.0000;105.7315;-0.0242;0.0000;
1194;798.35;12525.78;-12525.78;0.0000;2137.0000;2159.0000;2159.0000;101.0295;-0.0044;0.0000;
1195;798.71;12520.14;-12520.14;0.0000;2131.0000;2115.0000;2115.0000;99.2492;0.0033;0.0000;
1196;799.07;12514.50;-12514.50;0.0000;2089.0000;2121.0000;2121.0000;101.5318;-0.0066;0.0000;
1197;799.43;12508.87;-12508.87;0.0000;2139.0000;2115.0000;2115.0000;98.8780;0.0049;0.0000;
1198;799.79;12503.25;-12503.25;0.0000;2173.0000;2233.0000;2233.0000;102.7612;-0.0118;0.0000;
1199;800.15;12497.64;-12497.64;0.0000;2063.0000;2161.0000;2161.0000;104.7504;-0.0202;0.0000;
1200;800.51;12492.03;-12492.03;0.0000;1991.0000;2153.0000;2153.0000;108.1366;-0.0340;0.0000;
1201;800.87;12486.42;-12486.42;0.0000;2067.0000;2047.0000;2047.0000;99.0324;0.0042;0.0000;
1202;801.23;12480.83;-12480.83;0.0000;1981.0000;2167.0000;2167.0000;109.3892;-0.0390;0.0000;
1203;801.59;12475.24;-12475.24;0.0000;2067.0000;2009.0000;2009.0000;97.1940;0.0124;0.0000;
1204;801.95;12469.65;-12469.65;0.0000;2097.0000;2043.0000;2043.0000;97.4249;0.0113;0.0000;
1205;802.31;12464.07;-12464.07;0.0000;2083.0000;2085.0000;2085.0000;100.0960;-0.0004;0.0000;
1206;802.66;12458.50;-12458.50;0.0000;1995.0000;2067.0000;2067.0000;103.6090;-0.0154;0.0000;
1207;803.02;12452.94;-12452.94;0.0000;2091.0000;2183.0000;2183.0000;104.3998;-0.0187;0.0000;
1208;803.38;12447.38;-12447.38;0.0000;2041.0000;2187.0000;2187.0000;107.1534;-0.0300;0.0000;
1209;803.74;12441.82;-12441.82;0.0000;2051.0000;2107.0000;2107.0000;102.7304;-0.0117;0.0000;
1210;804.10;12436.27;-12436.27;0.0000;1993.0000;2083.0000;2083.0000;104.5158;-0.0192;0.0000;
1211;804.46;12430.73;-12430.73;0.0000;2097.0000;2135.0000;2135.0000;101.8121;-0.0078;0.0000;
1212;804.82;12425.20;-12425.20;0.0000;2115.0000;2177.0000;2177.0000;102.9314;-0.0125;0.0000;
1213;805.17;12419.67;-12419.67;0.0000;2105.0000;1973.0000;1973.0000;93.7292;0.0281;0.0000;
1214;805.53;12414.14;-12414.14;0.0000;2017.0000;2145.0000;2145.0000;106.3461;-0.0267;0.0000;
1215;805.89;12408.63;-12408.63;0.0000;2129.0000;2101.0000;2101.0000;98.6848;0.0057;0.0000;
1216;806.25;12403.11;-12403.11;0.0000;2097.0000;2063.0000;2063.0000;98.3786;0.0071;0.0000;
1217;806.61;12397.61;-12397.61;0.0000;2185.0000;2177.0000;2177.0000;99.6339;0.0016;0.0000;
1218;806.97;12392.11;-12392.11;0.0000;2053.0000;2019.0000;2019.0000;98.3439;0.0073;0.0000;
1219;807.32;12386.62;-12386.62;0.0000;2069.0000;2133.0000;2133.0000;103.0933;-0.0132;0.0000;
1220;807.68;12381.13;-12381.13;0.0000;2079.0000;2109.0000;2109.0000;101.4430;-0.0062;0.0000;
1221;808.04;12375.65;-12375.65;0.0000;2195.0000;2079.0000;2079.0000;94.7153;0.0236;0.0000;
1222;808.40;12370.17;-12370.17;0.0000;2089.0000;2133.0000;2133.0000;102.1063;-0.0091;0.0000;
1223;808.75;12364.70;-12364.70;0.0000;1973.0000;2017.0000;2017.0000;102.2301;-0.0096;0.0000;
1224;809.11;12359.24;-12359.24;0.0000;2015.0000;2023.0000;2023.0000;100.3970;-0.0017;0.0000;
1225;809.47;12353.78;-12353.78;0.0000;2075.0000;2093.0000;2093.0000;100.8675;-0.0038;0.0000;
1226;809.83;12348.33;-12348.33;0.0000;1991.0000;2101.0000;2101.0000;105.5249;-0.0234;0.0000;
1227;810.18;12342.89;-12342.89;0.0000;2005.0000;1963.0000;1963.0000;97.9052;0.0092;0.0000;
1228;810.54;12337.45;-12337.45;0.0000;2083.0000;2041.0000;2041.0000;97.9837;0.0088;0.0000;
1229;810.90;12332.01;-12332.01;0.0000;2091.0000;2053.0000;2053.0000;98.1827;0.0080;0.0000;
1230;811.25;12326.59;-12326.59;0.0000;1975.0000;2005.0000;2005.0000;101.5190;-0.0065;0.0000;
1231;811.61;12321.16;-12321.16;0.0000;1897.0000;1915.0000;1915.0000;100.9489;-0.0041;0.0000;
1232;811.97;12315.75;-12315.75;0.0000;1951.0000;1967.0000;1967.0000;100.8201;-0.0035;0.0000;
1233;812.33;12310.34;-12310.34;0.0000;1931.0000;2027.0000;2027.0000;104.9715;-0.0211;0.0000;
1234;812.68;12304.93;-12304.93;0.0000;1867.0000;2021.0000;2021.0000;108.2485;-0.0344;0.0000;
1235;813.04;12299.54;-12299.54;0.0000;1991.0000;2047.0000;2047.0000;102.8127;-0.0120;0.0000;
1236;813.40;12294.14;-12294.14;0.0000;1963.0000;2025.0000;2025.0000;103.1584;-0.0135;0.0000;
1237;813.75;12288.76;-12288.76;0.0000;1851.0000;2079.0000;2079.0000;112.3177;-0.0504;0.0000;
1238;814.11;12283.38;-12283.38;0.0000;1841.0000;2039.0000;2039.0000;110.7550;-0.0444;0.0000;
1239;814.46;12278.00;-12278.00;0.0000;1893.0000;2109.0000;2109.0000;111.4105;-0.0469;0.0000;
1240;814.82;12272.63;-12272.63;0.0000;1951.0000;1941.0000;1941.0000;99.4874;0.0022;0.0000;
1241;815.18;12267.27;-12267.27;0.0000;1809.0000;1973.0000;1973.0000;109.0658;-0.0377;0.0000;
1242;815.53;12261.91;-12261.91;0.0000;1877.0000;1905.0000;1905.0000;101.4917;-0.0064;0.0000;
1243;815.89;12256.56;-12256.56;0.0000;1887.0000;1949.0000;1949.0000;103.2856;-0.0140;0.0000;
1244;816.25;12251.21;-12251.21;0.0000;1855.0000;2041.0000;2041.0000;110.0270;-0.0415;0.0000;
1245;816.60;12245.87;-12245.87;0.0000;1909.0000;2113.0000;2113.0000;110.6862;-0.0441;0.0000;
1246;816.96;12240.54;-12240.54;0.0000;1807.0000;1877.0000;1877.0000;103.8738;-0.0165;0.0000;
1247;817.31;12235.21;-12235.21;0.0000;1913.0000;1983.0000;1983.0000;103.6592;-0.0156;0.0000;
1248;817.67;12229.89;-12229.89;0.0000;1877.0000;1999.0000;1999.0000;106.4997;-0.0273;0.0000;
1249;818.02;12224.57;-12224.57;0.0000;1969.0000;2019.0000;2019.0000;102.5394;-0.0109;0.0000;
1250;818.38;12219.26;-12219.26;0.0000;2009.0000;1987.0000;1987.0000;98.9049;0.0048;0.0000;
1251;818.74;12213.96;-12213.96;0.0000;1861.0000;1945.0000;1945.0000;104.5137;-0.0192;0.0000;
1252;819.09;12208.66;-12208.66;0.0000;1801.0000;1891.0000;1891.0000;104.9972;-0.0212;0.0000;
1253;819.45;12203.36;-12203.36;0.0000;1929.0000;1887.0000;1887.0000;97.8227;0.0096;0.0000;
1254;819.80;12198.07;-12198.07;0.0000;1827.0000;1813.0000;1813.0000;99.2337;0.0033;0.0000;
1255;820.16;12192.79;-12192.79;0.0000;1859.0000;2003.0000;2003.0000;107.7461;-0.0324;0.0000;
1256;820.51;12187.51;-12187.51;0.0000;1827.0000;2089.0000;2089.0000;114.3404;-0.0582;0.0000;
1257;820.87;12182.24;-12182.24;0.0000;1755.0000;1907.0000;1907.0000;108.6610;-0.0361;0.0000;
1258;821.22;12176.98;-12176.98;0.0000;1859.0000;1883.0000;1883.0000;101.2910;-0.0056;0.0000;
1259;821.58;12171.72;-12171.72;0.0000;1821.0000;1909.0000;1909.0000;104.8325;-0.0205;0.0000;
1260;821.93;12166.46;-12166.46;0.0000;1777.0000;1881.0000;1881.0000;105.8526;-0.0247;0.0000;
1261;822.29;12161.21;-12161.21;0.0000;1753.0000;1861.0000;1861.0000;106.1609;-0.0260;0.0000;
1262;822.64;12155.97;-12155.97;0.0000;1793.0000;1837.0000;1837.0000;102.4540;-0.0105;0.0000;
1263;823.00;12150.73;-12150.73;0.0000;1805.0000;1819.0000;1819.0000;100.7756;-0.0034;0.0000;
1264;823.35;12145.50;-12145.50;0.0000;1847.0000;1879.0000;1879.0000;101.7325;-0.0075;0.0000;
1265;823.70;12140.28;-12140.28;0.0000;1791.0000;1913.0000;1913.0000;106.8118;-0.0286;0.0000;
1266;824.06;12135.06;-12135.06;0.0000;1875.0000;1883.0000;1883.0000;100.4267;-0.0018;0.0000;
1267;824.41;12129.84;-12129.84;0.0000;1825.0000;1867.0000;1867.0000;102.3014;-0.0099;0.0000;
1268;824.77;12124.63;-12124.63;0.0000;1861.0000;1839.0000;1839.0000;98.8178;0.0052;0.0000;
1269;825.12;12119.43;-12119.43;0.0000;1655.0000;1771.0000;1771.0000;107.0091;-0.0294;0.0000;
1270;825.48;12114.23;-12114.23;0.0000;1815.0000;1765.0000;1765.0000;97.2452;0.0121;0.0000;
1271;825.83;12109.04;-12109.04;0.0000;1767.0000;1807.0000;1807.0000;102.2637;-0.0097;0.0000;
1272;826.18;12103.85;-12103.85;0.0000;1759.0000;1807.0000;1807.0000;102.7288;-0.0117;0.0000;
1273;826.54;12098.67;-12098.67;0.0000;1755.0000;1771.0000;1771.0000;100.9117;-0.0039;0.0000;
1274;826.89;12093.49;-12093.49;0.0000;1811.0000;1817.0000;1817.0000;100.3313;-0.0014;0.0000;
1275;827.24;12088.32;-12088.32;0.0000;1745.0000;1679.0000;1679.0000;96.2178;0.0167;0.0000;
1276;827.60;12083.16;-12083.16;0.0000;1743.0000;1995.0000;1995.0000;114.4578;-0.0586;0.0000;
1277;827.95;12078.00;-12078.00;0.0000;1737.0000;1775.0000;1775.0000;102.1877;-0.0094;0.0000;
1278;828.31;12072.84;-12072.84;0.0000;1733.0000;1759.0000;1759.0000;101.5003;-0.0065;0.0000;
1279;828.66;12067.69;-12067.69;0.0000;1703.0000;1713.0000;1713.0000;100.5872;-0.0025;0.0000;
1280;829.01;12062.55;-12062.55;0.0000;1685.0000;1699.0000;1699.0000;100.8309;-0.0036;0.0000;
1281;829.37;12057.41;-12057.41;0.0000;1673.0000;1735.0000;1735.0000;103.7059;-0.0158;0.0000;
1282;829.72;12052.28;-12052.28;0.0000;1557.0000;1753.0000;1753.0000;112.5883;-0.0515;0.0000;
1283;830.07;12047.16;-12047.16;0.0000;1549.0000;1755.0000;1755.0000;113.2989;-0.0542;0.0000;
1284;830.42;12042.03;-12042.03;0.0000;1589.0000;1705.0000;1705.0000;107.3002;-0.0306;0.0000;
1285;830.78;12036.92;-12036.92;0.0000;1659.0000;1707.0000;1707.0000;102.8933;-0.0124;0.0000;
1286;831.13;12031.81;-12031.81;0.0000;1683.0000;1739.0000;1739.0000;103.3274;-0.0142;0.0000;
1287;831.48;12026.70;-12026.70;0.0000;1657.0000;1693.0000;1693.0000;102.1726;-0.0093;0.0000;
1288;831.84;12021.60;-12021.60;0.0000;1609.0000;1601.0000;1601.0000;99.5028;0.0022;0.0000;
1289;832.19;12016.51;-12016.51;0.0000;1617.0000;1615.0000;1615.0000;99.8763;0.0005;0.0000;
1290;832.54;12011.42;-12011.42;0.0000;1577.0000;1639.0000;1639.0000;103.9315;-0.0167;0.0000;
1291;832.89;12006.34;-12006.34;0.0000;1615.0000;1623.0000;1623.0000;100.4954;-0.0021;0.0000;
1292;833.25;12001.26;-12001.26;0.0000;1643.0000;1675.0000;1675.0000;101.9477;-0.0084;0.0000;
1293;833.60;11996.19;-11996.19;0.0000;1561.0000;1647.0000;1647.0000;105.5093;-0.0233;0.0000;
1294;833.95;11991.12;-11991.12;0.0000;1601.0000;1705.0000;1705.0000;106.4959;-0.0273;0.0000;
1295;834.30;11986.06;-11986.06;0.0000;1673.0000;1675.0000;1675.0000;100.1195;-0.0005;0.0000;
1296;834.65;11981.00;-11981.00;0.0000;1515.0000;1591.0000;1591.0000;105.0165;-0.0213;0.0000;
1297;835.01;11975.95;-11975.95;0.0000;1533.0000;1649.0000;1649.0000;107.5669;-0.0317;0.0000;
1298;835.36;11970.90;-11970.90;0.0000;1541.0000;1701.0000;1701.0000;110.3829;-0.0429;0.0000;
1299;835.71;11965.86;-11965.86;0.0000;1551.0000;1689.0000;1689.0000;108.8975;-0.0370;0.0000;
1300;836.06;11960.83;-11960.83;0.0000;1479.0000;1613.0000;1613.0000;109.0602;-0.0377;0.0000;
1301;836.41;11955.80;-11955.80;0.0000;1539.0000;1545.0000;1545.0000;100.3899;-0.0017;0.0000;
1302;836.77;11950.78;-11950.78;0.0000;1411.0000;1669.0000;1669.0000;118.2849;-0.0729;0.0000;
1303;837.12;11945.76;-11945.76;0.0000;1453.0000;1677.0000;1677.0000;115.4164;-0.0623;0.0000;
1304;837.47;11940.74;-11940.74;0.0000;1437.0000;1549.0000;1549.0000;107.7940;-0.0326;0.0000;
1305;837.82;11935.73;-11935.73;0.0000;1485.0000;1553.0000;1553.0000;104.5791;-0.0194;0.0000;
1306;838.17;11930.73;-11930.73;0.0000;1603.0000;1551.0000;1551.0000;96.7561;0.0143;0.0000;
1307;838.52;11925.73;-11925.73;0.0000;1555.0000;1537.0000;1537.0000;98.8424;0.0051;0.0000;
1308;838.87;11920.74;-11920.74;0.0000;1565.0000;1499.0000;1499.0000;95.7827;0.0187;0.0000;
1309;839.23;11915.75;-11915.75;0.0000;1477.0000;1565.0000;1565.0000;105.9580;-0.0251;0.0000;
1310;839.58;11910.77;-11910.77;0.0000;1465.0000;1491.0000;1491.0000;101.7747;-0.0076;0.0000;
1311;839.93;11905.79;-11905.79;0.0000;1505.0000;1519.0000;1519.0000;100.9302;-0.0040;0.0000;
1312;840.28;11900.82;-11900.82;0.0000;1431.0000;1487.0000;1487.0000;103.9133;-0.0167;0.0000;
1313;840.63;11895.85;-11895.85;0.0000;1519.0000;1371.0000;1371.0000;90.2567;0.0445;0.0000;
1314;840.98;11890.89;-11890.89;0.0000;1461.0000;1521.0000;1521.0000;104.1068;-0.0175;0.0000;
1315;841.33;11885.94;-11885.94;0.0000;1493.0000;1421.0000;1421.0000;95.1775;0.0215;0.0000;
1316;841.68;11880.98;-11880.98;0.0000;1417.0000;1577.0000;1577.0000;111.2915;-0.0465;0.0000;
1317;842.03;11876.04;-11876.04;0.0000;1437.0000;1485.0000;1485.0000;103.3403;-0.0143;0.0000;
1318;842.38;11871.10;-11871.10;0.0000;1403.0000;1499.0000;1499.0000;106.8425;-0.0287;0.0000;
1319;842.73;11866.16;-11866.16;0.0000;1337.0000;1485.0000;1485.0000;111.0696;-0.0456;0.0000;
1320;843.08;11861.23;-11861.23;0.0000;1441.0000;1497.0000;1497.0000;103.8862;-0.0166;0.0000;
1321;843.43;11856.31;-11856.31;0.0000;1541.0000;1455.0000;1455.0000;94.4192;0.0249;0.0000;
1322;843.78;11851.39;-11851.39;0.0000;1425.0000;1385.0000;1385.0000;97.1930;0.0124;0.0000;
1323;844.13;11846.47;-11846.47;0.0000;1289.0000;1513.0000;1513.0000;117.3778;-0.0696;0.0000;
1324;844.48;11841.56;-11841.56;0.0000;1345.0000;1501.0000;1501.0000;111.5985;-0.0477;0.0000;
1325;844.83;11836.66;-11836.66;0.0000;1359.0000;1491.0000;1491.0000;109.7130;-0.0403;0.0000;
1326;845.18;11831.76;-11831.76;0.0000;1361.0000;1409.0000;1409.0000;103.5268;-0.0151;0.0000;
1327;845.53;11826.86;-11826.86;0.0000;1353.0000;1363.0000;1363.0000;100.7391;-0.0032;0.0000;
1328;845.88;11821.97;-11821.97;0.0000;1421.0000;1377.0000;1377.0000;96.9036;0.0137;0.0000;
1329;846.23;11817.09;-11817.09;0.0000;1321.0000;1419.0000;1419.0000;107.4186;-0.0311;0.0000;
1330;846.58;11812.21;-11812.21;0.0000;1293.0000;1395.0000;1395.0000;107.8886;-0.0330;0.0000;
1331;846.93;11807.34;-11807.34;0.0000;1259.0000;1445.0000;1445.0000;114.7736;-0.0598;0.0000;
1332;847.28;11802.47;-11802.47;0.0000;1269.0000;1405.0000;1405.0000;110.7171;-0.0442;0.0000;
1333;847.63;11797.60;-11797.60;0.0000;1363.0000;1421.0000;1421.0000;104.2553;-0.0181;0.0000;
1334;847.98;11792.74;-11792.74;0.0000;1363.0000;1345.0000;1345.0000;98.6794;0.0058;0.0000;
1335;848.33;11787.89;-11787.89;0.0000;1317.0000;1331.0000;1331.0000;101.0630;-0.0046;0.0000;
1336;848.68;11783.04;-11783.04;0.0000;1347.0000;1359.0000;1359.0000;100.8909;-0.0039;0.0000;
1337;849.03;11778.20;-11778.20;0.0000;1355.0000;1379.0000;1379.0000;101.7712;-0.0076;0.0000;
1338;849.38;11773.36;-11773.36;0.0000;1421.0000;1295.0000;1295.0000;91.1330;0.0403;0.0000;
1339;849.72;11768.52;-11768.52;0.0000;1347.0000;1427.0000;1427.0000;105.9391;-0.0251;0.0000;
1340;850.07;11763.70;-11763.70;0.0000;1305.0000;1359.0000;1359.0000;104.1379;-0.0176;0.0000;
1341;850.42;11758.87;-11758.87;0.0000;1213.0000;1401.0000;1401.0000;115.4988;-0.0626;0.0000;
1342;850.77;11754.05;-11754.05;0.0000;1255.0000;1377.0000;1377.0000;109.7211;-0.0403;0.0000;
1343;851.12;11749.24;-11749.24;0.0000;1221.0000;1409.0000;1409.0000;115.3972;-0.0622;0.0000;
1344;851.47;11744.43;-11744.43;0.0000;1329.0000;1275.0000;1275.0000;95.9368;0.0180;0.0000;
1345;851.82;11739.63;-11739.63;0.0000;1267.0000;1301.0000;1301.0000;102.6835;-0.0115;0.0000;
1346;852.16;11734.83;-11734.83;0.0000;1425.0000;1419.0000;1419.0000;99.5789;0.0018;0.0000;
1347;852.51;11730.03;-11730.03;0.0000;1273.0000;1355.0000;1355.0000;106.4415;-0.0271;0.0000;
1348;852.86;11725.25;-11725.25;0.0000;1207.0000;1425.0000;1425.0000;118.0613;-0.0721;0.0000;
1349;853.21;11720.46;-11720.46;0.0000;1325.0000;1249.0000;1249.0000;94.2642;0.0257;0.0000;
1350;853.56;11715.68;-11715.68;0.0000;1227.0000;1321.0000;1321.0000;107.6610;-0.0321;0.0000;
1351;853.90;11710.91;-11710.91;0.0000;1299.0000;1319.0000;1319.0000;101.5396;-0.0066;0.0000;
1352;854.25;11706.14;-11706.14;0.0000;1271.0000;1357.0000;1357.0000;106.7663;-0.0284;0.0000;
1353;854.60;11701.37;-11701.37;0.0000;1291.0000;1273.0000;1273.0000;98.6057;0.0061;0.0000;
1354;854.95;11696.62;-11696.62;0.0000;1225.0000;1257.0000;1257.0000;102.6122;-0.0112;0.0000;
1355;855.30;11691.86;-11691.86;0.0000;1253.0000;1251.0000;1251.0000;99.8404;0.0007;0.0000;
1356;855.64;11687.11;-11687.11;0.0000;1211.0000;1245.0000;1245.0000;102.8076;-0.0120;0.0000;
1357;855.99;11682.37;-11682.37;0.0000;1181.0000;1243.0000;1243.0000;105.2498;-0.0222;0.0000;
1358;856.34;11677.63;-11677.63;0.0000;1239.0000;1383.0000;1383.0000;111.6223;-0.0478;0.0000;
1359;856.69;11672.89;-11672.89;0.0000;1223.0000;1263.0000;1263.0000;103.2706;-0.0140;0.0000;
1360;857.03;11668.16;-11668.16;0.0000;1183.0000;1149.0000;1149.0000;97.1260;0.0127;0.0000;
1361;857.38;11663.44;-11663.44;0.0000;1195.0000;1243.0000;1243.0000;104.0167;-0.0171;0.0000;
1362;857.73;11658.72;-11658.72;0.0000;1251.0000;1233.0000;1233.0000;98.5612;0.0063;0.0000;
1363;858.07;11654.00;-11654.00;0.0000;1145.0000;1185.0000;1185.0000;103.4934;-0.0149;0.0000;
1364;858.42;11649.29;-11649.29;0.0000;1171.0000;1279.0000;1279.0000;109.2229;-0.0383;0.0000;
1365;858.77;11644.58;-11644.58;0.0000;1211.0000;1275.0000;1275.0000;105.2849;-0.0224;0.0000;
1366;859.12;11639.88;-11639.88;0.0000;1231.0000;1197.0000;1197.0000;97.2380;0.0122;0.0000;
1367;859.46;11635.19;-11635.19;0.0000;1207.0000;1241.0000;1241.0000;102.8169;-0.0121;0.0000;
1368;859.81;11630.50;-11630.50;0.0000;1149.0000;1269.0000;1269.0000;110.4439;-0.0431;0.0000;
1369;860.16;11625.81;-11625.81;0.0000;1055.0000;1157.0000;1157.0000;109.6682;-0.0401;0.0000;
1370;860.50;11621.13;-11621.13;0.0000;1089.0000;1233.0000;1233.0000;113.2231;-0.0539;0.0000;
1371;860.85;11616.45;-11616.45;0.0000;1053.0000;1101.0000;1101.0000;104.5584;-0.0194;0.0000;
1372;861.19;11611.78;-11611.78;0.0000;1047.0000;1171.0000;1171.0000;111.8434;-0.0486;0.0000;
1373;861.54;11607.11;-11607.11;0.0000;1187.0000;1155.0000;1155.0000;97.3041;0.0119;0.0000;
1374;861.89;11602.45;-11602.45;0.0000;1087.0000;1157.0000;1157.0000;106.4397;-0.0271;0.0000;
1375;862.23;11597.79;-11597.79;0.0000;1065.0000;1183.0000;1183.0000;111.0798;-0.0456;0.0000;
1376;862.58;11593.14;-11593.14;0.0000;1155.0000;1089.0000;1089.0000;94.2857;0.0256;0.0000;
1377;862.93;11588.49;-11588.49;0.0000;1161.0000;1283.0000;1283.0000;110.5082;-0.0434;0.0000;
1378;863.27;11583.85;-11583.85;0.0000;1121.0000;1209.0000;1209.0000;107.8501;-0.0328;0.0000;
1379;863.62;11579.21;-11579.21;0.0000;1087.0000;1103.0000;1103.0000;101.4719;-0.0063;0.0000;
1380;863.96;11574.57;-11574.57;0.0000;1059.0000;1179.0000;1179.0000;111.3314;-0.0466;0.0000;
1381;864.31;11569.94;-11569.94;0.0000;1141.0000;1193.0000;1193.0000;104.5574;-0.0194;0.0000;
1382;864.65;11565.32;-11565.32;0.0000;1065.0000;1171.0000;1171.0000;109.9531;-0.0412;0.0000;
1383;865.00;11560.70;-11560.70;0.0000;1089.0000;1061.0000;1061.0000;97.4288;0.0113;0.0000;
1384;865.35;11556.08;-11556.08;0.0000;1079.0000;1117.0000;1117.0000;103.5218;-0.0150;0.0000;
1385;865.69;11551.47;-11551.47;0.0000;1007.0000;1179.0000;1179.0000;117.0804;-0.0685;0.0000;
1386;866.04;11546.87;-11546.87;0.0000;1079.0000;1105.0000;1105.0000;102.4096;-0.0103;0.0000;
1387;866.38;11542.27;-11542.27;0.0000;1149.0000;1165.0000;1165.0000;101.3925;-0.0060;0.0000;
1388;866.73;11537.67;-11537.67;0.0000;1165.0000;1089.0000;1089.0000;93.4764;0.0293;0.0000;
1389;867.07;11533.08;-11533.08;0.0000;1061.0000;1167.0000;1167.0000;109.9906;-0.0414;0.0000;
1390;867.42;11528.49;-11528.49;0.0000;1087.0000;1055.0000;1055.0000;97.0561;0.0130;0.0000;
1391;867.76;11523.91;-11523.91;0.0000;989.0000;1063.0000;1063.0000;107.4823;-0.0313;0.0000;
1392;868.11;11519.33;-11519.33;0.0000;937.0000;1109.0000;1109.0000;118.3565;-0.0732;0.0000;
1393;868.45;11514.76;-11514.76;0.0000;1057.0000;1161.0000;1161.0000;109.8392;-0.0408;0.0000;
1394;868.80;11510.19;-11510.19;0.0000;983.0000;1111.0000;1111.0000;113.0214;-0.0532;0.0000;
1395;869.14;11505.62;-11505.62;0.0000;1015.0000;1139.0000;1139.0000;112.2167;-0.0501;0.0000;
1396;869.48;11501.06;-11501.06;0.0000;1093.0000;1047.0000;1047.0000;95.7914;0.0187;0.0000;
1397;869.83;11496.51;-11496.51;0.0000;977.0000;1061.0000;1061.0000;108.5977;-0.0358;0.0000;
1398;870.17;11491.96;-11491.96;0.0000;997.0000;1103.0000;1103.0000;110.6319;-0.0439;0.0000;
1399;870.52;11487.41;-11487.41;0.0000;1041.0000;1029.0000;1029.0000;98.8473;0.0050;0.0000;
1400;870.86;11482.87;-11482.87;0.0000;1057.0000;1035.0000;1035.0000;97.9186;0.0091;0.0000;
1401;871.21;11478.34;-11478.34;0.0000;951.0000;1037.0000;1037.0000;109.0431;-0.0376;0.0000;
1402;871.55;11473.80;-11473.80;0.0000;957.0000;1061.0000;1061.0000;110.8673;-0.0448;0.0000;
1403;871.89;11469.28;-11469.28;0.0000;1043.0000;1063.0000;1063.0000;101.9175;-0.0082;0.0000;
1404;872.24;11464.75;-11464.75;0.0000;1009.0000;1099.0000;1099.0000;108.9197;-0.0371;0.0000;
1405;872.58;11460.24;-11460.24;0.0000;933.0000;947.0000;947.0000;101.5005;-0.0065;0.0000;
1406;872.93;11455.72;-11455.72;0.0000;977.0000;1071.0000;1071.0000;109.6213;-0.0399;0.0000;
1407;873.27;11451.21;-11451.21;0.0000;1035.0000;985.0000;985.0000;95.1691;0.0215;0.0000;
1408;873.61;11446.71;-11446.71;0.0000;943.0000;953.0000;953.0000;101.0604;-0.0046;0.0000;
1409;873.96;11442.21;-11442.21;0.0000;1105.0000;1021.0000;1021.0000;92.3982;0.0343;0.0000;
1410;874.30;11437.71;-11437.71;0.0000;1003.0000;993.0000;993.0000;99.0030;0.0044;0.0000;
1411;874.64;11433.22;-11433.22;0.0000;913.0000;987.0000;987.0000;108.1051;-0.0338;0.0000;
1412;874.99;11428.74;-11428.74;0.0000;949.0000;973.0000;973.0000;102.5290;-0.0108;0.0000;
1413;875.33;11424.26;-11424.26;0.0000;815.0000;965.0000;965.0000;118.4049;-0.0734;0.0000;
1414;875.67;11419.78;-11419.78;0.0000;876.0000;967.0000;967.0000;110.3881;-0.0429;0.0000;
1415;876.02;11415.31;-11415.31;0.0000;937.0000;969.0000;969.0000;103.4152;-0.0146;0.0000;
1416;876.36;11410.84;-11410.84;0.0000;777.0000;947.0000;947.0000;121.8790;-0.0859;0.0000;
1417;876.70;11406.37;-11406.37;0.0000;869.0000;969.0000;969.0000;111.5075;-0.0473;0.0000;
1418;877.05;11401.91;-11401.91;0.0000;861.0000;1003.0000;1003.0000;116.4925;-0.0663;0.0000;
1419;877.39;11397.46;-11397.46;0.0000;959.0000;1001.0000;1001.0000;104.3796;-0.0186;0.0000;
1420;877.73;11393.01;-11393.01;0.0000;947.0000;955.0000;955.0000;100.8448;-0.0037;0.0000;
1421;878.07;11388.56;-11388.56;0.0000;833.0000;835.0000;835.0000;100.2401;-0.0010;0.0000;
1422;878.42;11384.12;-11384.12;0.0000;891.0000;811.0000;811.0000;91.0213;0.0409;0.0000;
1423;878.76;11379.68;-11379.68;0.0000;919.0000;889.0000;889.0000;96.7356;0.0144;0.0000;
1424;879.10;11375.25;-11375.25;0.0000;869.0000;849.0000;849.0000;97.6985;0.0101;0.0000;
1425;879.44;11370.82;-11370.82;0.0000;823.0000;967.0000;967.0000;117.4970;-0.0700;0.0000;
1426;879.79;11366.40;-11366.40;0.0000;889.0000;909.0000;909.0000;102.2497;-0.0097;0.0000;
1427;880.13;11361.98;-11361.98;0.0000;869.0000;919.0000;919.0000;105.7537;-0.0243;0.0000;
1428;880.47;11357.56;-11357.56;0.0000;879.0000;917.0000;917.0000;104.3231;-0.0184;0.0000;
1429;880.81;11353.15;-11353.15;0.0000;833.0000;869.0000;869.0000;104.3217;-0.0184;0.0000;
1430;881.15;11348.75;-11348.75;0.0000;763.0000;843.0000;843.0000;110.4849;-0.0433;0.0000;
1431;881.50;11344.35;-11344.35;0.0000;805.0000;889.0000;889.0000;110.4348;-0.0431;0.0000;
1432;881.84;11339.95;-11339.95;0.0000;811.0000;969.0000;969.0000;119.4821;-0.0773;0.0000;
1433;882.18;11335.56;-11335.56;0.0000;739.0000;959.0000;959.0000;129.7700;-0.1132;0.0000;
1434;882.52;11331.17;-11331.17;0.0000;781.0000;853.0000;853.0000;109.2190;-0.0383;0.0000;
1435;882.86;11326.78;-11326.78;0.0000;761.0000;871.0000;871.0000;114.4547;-0.0586;0.0000;
1436;883.20;11322.40;-11322.40;0.0000;861.0000;849.0000;849.0000;98.6063;0.0061;0.0000;
1437;883.55;11318.03;-11318.03;0.0000;813.0000;929.0000;929.0000;114.2681;-0.0579;0.0000;
1438;883.89;11313.66;-11313.66;0.0000;889.0000;897.0000;897.0000;100.8999;-0.0039;0.0000;
1439;884.23;11309.29;-11309.29;0.0000;797.0000;889.0000;889.0000;111.5433;-0.0474;0.0000;
1440;884.57;11304.93;-11304.93;0.0000;795.0000;963.0000;963.0000;121.1321;-0.0833;0.0000;
1441;884.91;11300.57;-11300.57;0.0000;775.0000;905.0000;905.0000;116.7742;-0.0673;0.0000;
1442;885.25;11296.22;-11296.22;0.0000;869.0000;869.0000;869.0000;100.0000;0.0000;0.0000;
1443;885.59;11291.87;-11291.87;0.0000;797.0000;821.0000;821.0000;103.0113;-0.0129;0.0000;
1444;885.93;11287.52;-11287.52;0.0000;871.0000;879.0000;879.0000;100.9185;-0.0040;0.0000;
1445;886.27;11283.18;-11283.18;0.0000;849.0000;905.0000;905.0000;106.5960;-0.0277;0.0000;
1446;886.62;11278.84;-11278.84;0.0000;781.0000;897.0000;897.0000;114.8528;-0.0601;0.0000;
1447;886.96;11274.51;-11274.51;0.0000;847.0000;875.0000;875.0000;103.3058;-0.0141;0.0000;
1448;887.30;11270.18;-11270.18;0.0000;939.0000;937.0000;937.0000;99.7870;0.0009;0.0000;
1449;887.64;11265.86;-11265.86;0.0000;961.0000;977.0000;977.0000;101.6649;-0.0072;0.0000;
1450;887.98;11261.54;-11261.54;0.0000;775.0000;865.0000;865.0000;111.6129;-0.0477;0.0000;
1451;888.32;11257.23;-11257.23;0.0000;841.0000;931.0000;931.0000;110.7015;-0.0442;0.0000;
1452;888.66;11252.92;-11252.92;0.0000;847.0000;915.0000;915.0000;108.0283;-0.0335;0.0000;
1453;889.00;11248.61;-11248.61;0.0000;899.0000;969.0000;969.0000;107.7864;-0.0326;0.0000;
1454;889.34;11244.31;-11244.31;0.0000;751.0000;897.0000;897.0000;119.4407;-0.0772;0.0000;
1455;889.68;11240.01;-11240.01;0.0000;823.0000;833.0000;833.0000;101.2151;-0.0052;0.0000;
1456;890.02;11235.72;-11235.72;0.0000;815.0000;837.0000;837.0000;102.6994;-0.0116;0.0000;
1457;890.36;11231.43;-11231.43;0.0000;835.0000;899.0000;899.0000;107.6647;-0.0321;0.0000;
1458;890.70;11227.14;-11227.14;0.0000;929.0000;925.0000;925.0000;99.5694;0.0019;0.0000;
1459;891.04;11222.86;-11222.86;0.0000;827.0000;877.0000;877.0000;106.0459;-0.0255;0.0000;
1460;891.38;11218.58;-11218.58;0.0000;857.0000;865.0000;865.0000;100.9335;-0.0040;0.0000;
1461;891.72;11214.31;-11214.31;0.0000;955.0000;809.0000;809.0000;84.7120;0.0721;0.0000;
1462;892.06;11210.04;-11210.04;0.0000;767.0000;925.0000;925.0000;120.5997;-0.0813;0.0000;
1463;892.40;11205.78;-11205.78;0.0000;769.0000;895.0000;895.0000;116.3849;-0.0659;0.0000;
1464;892.74;11201.52;-11201.52;0.0000;879.0000;877.0000;877.0000;99.7725;0.0010;0.0000;
1465;893.08;11197.26;-11197.26;0.0000;1009.0000;815.0000;815.0000;80.7730;0.0927;0.0000;
1466;893.41;11193.01;-11193.01;0.0000;855.0000;921.0000;921.0000;107.7193;-0.0323;0.0000;
1467;893.75;11188.76;-11188.76;0.0000;945.0000;967.0000;967.0000;102.3280;-0.0100;0.0000;
1468;894.09;11184.52;-11184.52;0.0000;913.0000;869.0000;869.0000;95.1807;0.0215;0.0000;
1469;894.43;11180.28;-11180.28;0.0000;927.0000;817.0000;817.0000;88.1338;0.0549;0.0000;
1470;894.77;11176.05;-11176.05;0.0000;877.0000;939.0000;939.0000;107.0696;-0.0297;0.0000;
1471;895.11;11171.82;-11171.82;0.0000;761.0000;923.0000;923.0000;121.2878;-0.0838;0.0000;
1472;895.45;11167.59;-11167.59;0.0000;877.0000;979.0000;979.0000;111.6306;-0.0478;0.0000;
1473;895.79;11163.37;-11163.37;0.0000;919.0000;929.0000;929.0000;101.0881;-0.0047;0.0000;
1474;896.13;11159.15;-11159.15;0.0000;837.0000;951.0000;951.0000;113.6201;-0.0555;0.0000;
1475;896.46;11154.93;-11154.93;0.0000;943.0000;1011.0000;1011.0000;107.2110;-0.0302;0.0000;
1476;896.80;11150.72;-11150.72;0.0000;837.0000;935.0000;935.0000;111.7085;-0.0481;0.0000;
1477;897.14;11146.52;-11146.52;0.0000;873.0000;951.0000;951.0000;108.9347;-0.0372;0.0000;
1478;897.48;11142.32;-11142.32;0.0000;843.0000;1047.0000;1047.0000;124.1993;-0.0941;0.0000;
1479;897.82;11138.12;-11138.12;0.0000;857.0000;989.0000;989.0000;115.4026;-0.0622;0.0000;
1480;898.16;11133.93;-11133.93;0.0000;789.0000;975.0000;975.0000;123.5741;-0.0919;0.0000;
1481;898.49;11129.74;-11129.74;0.0000;757.0000;1001.0000;1001.0000;132.2325;-0.1213;0.0000;
1482;898.83;11125.55;-11125.55;0.0000;935.0000;955.0000;955.0000;102.1390;-0.0092;0.0000;
1483;899.17;11121.37;-11121.37;0.0000;883.0000;989.0000;989.0000;112.0045;-0.0492;0.0000;
1484;899.51;11117.19;-11117.19;0.0000;999.0000;923.0000;923.0000;92.3924;0.0344;0.0000;
1485;899.85;11113.02;-11113.02;0.0000;953.0000;877.0000;877.0000;92.0252;0.0361;0.0000;
1486;900.18;11108.85;-11108.85;0.0000;919.0000;877.0000;877.0000;95.4298;0.0203;0.0000;
1487;900.52;11104.69;-11104.69;0.0000;851.0000;989.0000;989.0000;116.2162;-0.0653;0.0000;
1488;900.86;11100.52;-11100.52;0.0000;847.0000;999.0000;999.0000;117.9457;-0.0717;0.0000;
1489;901.20;11096.37;-11096.37;0.0000;805.0000;939.0000;939.0000;116.6460;-0.0669;0.0000;
1490;901.53;11092.22;-11092.22;0.0000;843.0000;909.0000;909.0000;107.8292;-0.0327;0.0000;
1491;901.87;11088.07;-11088.07;0.0000;939.0000;977.0000;977.0000;104.0469;-0.0172;0.0000;
1492;902.21;11083.92;-11083.92;0.0000;887.0000;951.0000;951.0000;107.2153;-0.0303;0.0000;
1493;902.54;11079.78;-11079.78;0.0000;871.0000;889.0000;889.0000;102.0666;-0.0089;0.0000;
1494;902.88;11075.64;-11075.64;0.0000;831.0000;807.0000;807.0000;97.1119;0.0127;0.0000;
1495;903.22;11071.51;-11071.51;0.0000;805.0000;947.0000;947.0000;117.6398;-0.0706;0.0000;
1496;903.56;11067.38;-11067.38;0.0000;917.0000;869.0000;869.0000;94.7655;0.0233;0.0000;
1497;903.89;11063.26;-11063.26;0.0000;773.0000;945.0000;945.0000;122.2510;-0.0873;0.0000;
1498;904.23;11059.14;-11059.14;0.0000;873.0000;983.0000;983.0000;112.6002;-0.0515;0.0000;
1499;904.57;11055.02;-11055.02;0.0000;899.0000;861.0000;861.0000;95.7731;0.0188;0.0000;
1500;904.90;11050.91;-11050.91;0.0000;849.0000;959.0000;959.0000;112.9564;-0.0529;0.0000;
1501;905.24;11046.80;-11046.80;0.0000;851.0000;909.0000;909.0000;106.8155;-0.0286;0.0000;
1502;905.58;11042.70;-11042.70;0.0000;827.0000;1017.0000;1017.0000;122.9746;-0.0898;0.0000;
1503;905.91;11038.60;-11038.60;0.0000;809.0000;919.0000;919.0000;113.5970;-0.0554;0.0000;
1504;906.25;11034.50;-11034.50;0.0000;931.0000;913.0000;913.0000;98.0666;0.0085;0.0000;
1505;906.58;11030.41;-11030.41;0.0000;899.0000;927.0000;927.0000;103.1146;-0.0133;0.0000;
1506;906.92;11026.32;-11026.32;0.0000;901.0000;769.0000;769.0000;85.3496;0.0688;0.0000;
1507;907.26;11022.23;-11022.23;0.0000;985.0000;997.0000;997.0000;101.2183;-0.0053;0.0000;
1508;907.59;11018.15;-11018.15;0.0000;897.0000;837.0000;837.0000;93.3110;0.0301;0.0000;
1509;907.93;11014.08;-11014.08;0.0000;799.0000;941.0000;941.0000;117.7722;-0.0710;0.0000;
1510;908.26;11010.00;-11010.00;0.0000;923.0000;973.0000;973.0000;105.4171;-0.0229;0.0000;
1511;908.60;11005.93;-11005.93;0.0000;967.0000;989.0000;989.0000;102.2751;-0.0098;0.0000;
1512;908.94;11001.87;-11001.87;0.0000;865.0000;887.0000;887.0000;102.5434;-0.0109;0.0000;
1513;909.27;10997.81;-10997.81;0.0000;747.0000;881.0000;881.0000;117.9384;-0.0717;0.0000;
1514;909.61;10993.75;-10993.75;0.0000;889.0000;873.0000;873.0000;98.2002;0.0079;0.0000;
1515;909.94;10989.70;-10989.70;0.0000;871.0000;881.0000;881.0000;101.1481;-0.0050;0.0000;
1516;910.28;10985.65;-10985.65;0.0000;869.0000;929.0000;929.0000;106.9045;-0.0290;0.0000;
1517;910.61;10981.60;-10981.60;0.0000;917.0000;1001.0000;1001.0000;109.1603;-0.0381;0.0000;
1518;910.95;10977.56;-10977.56;0.0000;845.0000;877.0000;877.0000;103.7870;-0.0161;0.0000;
1519;911.28;10973.52;-10973.52;0.0000;881.0000;873.0000;873.0000;99.0919;0.0040;0.0000;
1520;911.62;10969.49;-10969.49;0.0000;837.0000;851.0000;851.0000;101.6726;-0.0072;0.0000;
1521;911.95;10965.46;-10965.46;0.0000;895.0000;883.0000;883.0000;98.6592;0.0059;0.0000;
1522;912.29;10961.44;-10961.44;0.0000;881.0000;963.0000;963.0000;109.3076;-0.0387;0.0000;
1523;912.62;10957.41;-10957.41;0.0000;851.0000;953.0000;953.0000;111.9859;-0.0492;0.0000;
1524;912.96;10953.40;-10953.40;0.0000;773.0000;1005.0000;1005.0000;130.0129;-0.1140;0.0000;
1525;913.29;10949.38;-10949.38;0.0000;863.0000;951.0000;951.0000;110.1970;-0.0422;0.0000;
1526;913.63;10945.37;-10945.37;0.0000;809.0000;787.0000;787.0000;97.2806;0.0120;0.0000;
1527;913.96;10941.36;-10941.36;0.0000;731.0000;793.0000;793.0000;108.4815;-0.0354;0.0000;
1528;914.30;10937.36;-10937.36;0.0000;709.0000;871.0000;871.0000;122.8491;-0.0894;0.0000;
1529;914.63;10933.36;-10933.36;0.0000;725.0000;907.0000;907.0000;125.1034;-0.0973;0.0000;
1530;914.97;10929.37;-10929.37;0.0000;685.0000;915.0000;915.0000;133.5766;-0.1257;0.0000;
1531;915.30;10925.38;-10925.38;0.0000;819.0000;901.0000;901.0000;110.0122;-0.0414;0.0000;
1532;915.63;10921.39;-10921.39;0.0000;705.0000;839.0000;839.0000;119.0071;-0.0756;0.0000;
1533;915.97;10917.41;-10917.41;0.0000;801.0000;803.0000;803.0000;100.2497;-0.0011;0.0000;
1534;916.30;10913.43;-10913.43;0.0000;699.0000;827.0000;827.0000;118.3119;-0.0730;0.0000;
1535;916.64;10909.45;-10909.45;0.0000;763.0000;829.0000;829.0000;108.6501;-0.0360;0.0000;
1536;916.97;10905.48;-10905.48;0.0000;759.0000;829.0000;829.0000;109.2227;-0.0383;0.0000;
1537;917.30;10901.51;-10901.51;0.0000;727.0000;821.0000;821.0000;112.9298;-0.0528;0.0000;
1538;917.64;10897.55;-10897.55;0.0000;781.0000;935.0000;935.0000;119.7183;-0.0782;0.0000;
1539;917.97;10893.58;-10893.58;0.0000;757.0000;833.0000;833.0000;110.0396;-0.0415;0.0000;
1540;918.31;10889.63;-10889.63;0.0000;821.0000;869.0000;869.0000;105.8465;-0.0247;0.0000;
1541;918.64;10885.67;-10885.67;0.0000;667.0000;923.0000;923.0000;138.3808;-0.1411;0.0000;
1542;918.97;10881.73;-10881.73;0.0000;777.0000;797.0000;797.0000;102.5740;-0.0110;0.0000;
1543;919.31;10877.78;-10877.78;0.0000;755.0000;839.0000;839.0000;111.1258;-0.0458;0.0000;
1544;919.64;10873.84;-10873.84;0.0000;853.0000;809.0000;809.0000;94.8417;0.0230;0.0000;
1545;919.97;10869.90;-10869.90;0.0000;827.0000;769.0000;769.0000;92.9867;0.0316;0.0000;
1546;920.30;10865.97;-10865.97;0.0000;773.0000;841.0000;841.0000;108.7969;-0.0366;0.0000;
1547;920.64;10862.04;-10862.04;0.0000;783.0000;753.0000;753.0000;96.1686;0.0170;0.0000;
1548;920.97;10858.11;-10858.11;0.0000;705.0000;757.0000;757.0000;107.3759;-0.0309;0.0000;
1549;921.30;10854.19;-10854.19;0.0000;677.0000;809.0000;809.0000;119.4978;-0.0774;0.0000;
1550;921.64;10850.27;-10850.27;0.0000;693.0000;747.0000;747.0000;107.7922;-0.0326;0.0000;
1551;921.97;10846.35;-10846.35;0.0000;683.0000;771.0000;771.0000;112.8843;-0.0526;0.0000;
1552;922.30;10842.44;-10842.44;0.0000;689.0000;863.0000;863.0000;125.2540;-0.0978;0.0000;
1553;922.63;10838.53;-10838.53;0.0000;863.0000;767.0000;767.0000;88.8760;0.0512;0.0000;
1554;922.97;10834.63;-10834.63;0.0000;719.0000;761.0000;761.0000;105.8414;-0.0247;0.0000;
1555;923.30;10830.73;-10830.73;0.0000;673.0000;787.0000;787.0000;116.9391;-0.0680;0.0000;
1556;923.63;10826.83;-10826.83;0.0000;671.0000;739.0000;739.0000;110.1341;-0.0419;0.0000;
1557;923.96;10822.94;-10822.94;0.0000;629.0000;817.0000;817.0000;129.8887;-0.1136;0.0000;
1558;924.30;10819.05;-10819.05;0.0000;697.0000;807.0000;807.0000;115.7819;-0.0636;0.0000;
1559;924.63;10815.16;-10815.16;0.0000;719.0000;791.0000;791.0000;110.0139;-0.0414;0.0000;
1560;924.96;10811.28;-10811.28;0.0000;821.0000;791.0000;791.0000;96.3459;0.0162;0.0000;
1561;925.29;10807.40;-10807.40;0.0000;753.0000;697.0000;697.0000;92.5631;0.0336;0.0000;
1562;925.62;10803.53;-10803.53;0.0000;649.0000;729.0000;729.0000;112.3267;-0.0505;0.0000;
1563;925.96;10799.65;-10799.65;0.0000;717.0000;783.0000;783.0000;109.2050;-0.0382;0.0000;
1564;926.29;10795.79;-10795.79;0.0000;739.0000;665.0000;665.0000;89.9865;0.0458;0.0000;
1565;926.62;10791.92;-10791.92;0.0000;595.0000;705.0000;705.0000;118.4874;-0.0737;0.0000;
1566;926.95;10788.06;-10788.06;0.0000;625.0000;675.0000;675.0000;108.0000;-0.0334;0.0000;
1567;927.28;10784.21;-10784.21;0.0000;681.0000;647.0000;647.0000;95.0073;0.0222;0.0000;
1568;927.61;10780.35;-10780.35;0.0000;703.0000;663.0000;663.0000;94.3101;0.0254;0.0000;
1569;927.94;10776.50;-10776.50;0.0000;641.0000;745.0000;745.0000;116.2246;-0.0653;0.0000;
1570;928.28;10772.66;-10772.66;0.0000;707.0000;785.0000;785.0000;111.0325;-0.0455;0.0000;
1571;928.61;10768.82;-10768.82;0.0000;605.0000;715.0000;715.0000;118.1818;-0.0726;0.0000;
1572;928.94;10764.98;-10764.98;0.0000;739.0000;607.0000;607.0000;82.1380;0.0855;0.0000;
1573;929.27;10761.14;-10761.14;0.0000;725.0000;631.0000;631.0000;87.0345;0.0603;0.0000;
1574;929.60;10757.31;-10757.31;0.0000;679.0000;643.0000;643.0000;94.6981;0.0237;0.0000;
1575;929.93;10753.49;-10753.49;0.0000;645.0000;633.0000;633.0000;98.1395;0.0082;0.0000;
1576;930.26;10749.66;-10749.66;0.0000;631.0000;661.0000;661.0000;104.7544;-0.0202;0.0000;
1577;930.59;10745.84;-10745.84;0.0000;627.0000;743.0000;743.0000;118.5008;-0.0737;0.0000;
1578;930.92;10742.03;-10742.03;0.0000;621.0000;819.0000;819.0000;131.8841;-0.1202;0.0000;
1579;931.25;10738.21;-10738.21;0.0000;549.0000;575.0000;575.0000;104.7359;-0.0201;0.0000;
1580;931.58;10734.40;-10734.40;0.0000;627.0000;645.0000;645.0000;102.8708;-0.0123;0.0000;
1581;931.91;10730.60;-10730.60;0.0000;599.0000;633.0000;633.0000;105.6761;-0.0240;0.0000;
1582;932.24;10726.80;-10726.80;0.0000;587.0000;653.0000;653.0000;111.2436;-0.0463;0.0000;
1583;932.58;10723.00;-10723.00;0.0000;615.0000;683.0000;683.0000;111.0569;-0.0455;0.0000;
1584;932.91;10719.20;-10719.20;0.0000;635.0000;649.0000;649.0000;102.2047;-0.0095;0.0000;
1585;933.24;10715.41;-10715.41;0.0000;583.0000;609.0000;609.0000;104.4597;-0.0189;0.0000;
1586;933.57;10711.62;-10711.62;0.0000;523.0000;631.0000;631.0000;120.6501;-0.0815;0.0000;
1587;933.90;10707.84;-10707.84;0.0000;593.0000;611.0000;611.0000;103.0354;-0.0130;0.0000;
1588;934.23;10704.06;-10704.06;0.0000;587.0000;663.0000;663.0000;112.9472;-0.0529;0.0000;
1589;934.55;10700.28;-10700.28;0.0000;569.0000;529.0000;529.0000;92.9701;0.0317;0.0000;
1590;934.88;10696.51;-10696.51;0.0000;575.0000;493.0000;493.0000;85.7391;0.0668;0.0000;
1591;935.21;10692.74;-10692.74;0.0000;549.0000;627.0000;627.0000;114.2077;-0.0577;0.0000;
1592;935.54;10688.97;-10688.97;0.0000;621.0000;773.0000;773.0000;124.4767;-0.0951;0.0000;
1593;935.87;10685.21;-10685.21;0.0000;625.0000;661.0000;661.0000;105.7600;-0.0243;0.0000;
1594;936.20;10681.45;-10681.45;0.0000;587.0000;643.0000;643.0000;109.5400;-0.0396;0.0000;
1595;936.53;10677.69;-10677.69;0.0000;581.0000;517.0000;517.0000;88.9845;0.0507;0.0000;
1596;936.86;10673.94;-10673.94;0.0000;547.0000;547.0000;547.0000;100.0000;0.0000;0.0000;
1597;937.19;10670.19;-10670.19;0.0000;637.0000;591.0000;591.0000;92.7786;0.0326;0.0000;
1598;937.52;10666.45;-10666.45;0.0000;643.0000;621.0000;621.0000;96.5785;0.0151;0.0000;
1599;937.85;10662.70;-10662.70;0.0000;549.0000;707.0000;707.0000;128.7796;-0.1098;0.0000;
1600;938.18;10658.97;-10658.97;0.0000;617.0000;649.0000;649.0000;105.1864;-0.0220;0.0000;
1601;938.51;10655.23;-10655.23;0.0000;493.0000;597.0000;597.0000;121.0953;-0.0831;0.0000;
1602;938.83;10651.50;-10651.50;0.0000;505.0000;507.0000;507.0000;100.3960;-0.0017;0.0000;
1603;939.16;10647.77;-10647.77;0.0000;611.0000;509.0000;509.0000;83.3061;0.0793;0.0000;
1604;939.49;10644.05;-10644.05;0.0000;487.0000;591.0000;591.0000;121.3552;-0.0841;0.0000;
1605;939.82;10640.33;-10640.33;0.0000;533.0000;541.0000;541.0000;101.5009;-0.0065;0.0000;
1606;940.15;10636.61;-10636.61;0.0000;471.0000;557.0000;557.0000;118.2590;-0.0728;0.0000;
1607;940.48;10632.89;-10632.89;0.0000;565.0000;593.0000;593.0000;104.9558;-0.0210;0.0000;
1608;940.81;10629.18;-10629.18;0.0000;633.0000;591.0000;591.0000;93.3649;0.0298;0.0000;
1609;941.13;10625.48;-10625.48;0.0000;483.0000;593.0000;593.0000;122.7743;-0.0891;0.0000;
1610;941.46;10621.77;-10621.77;0.0000;527.0000;537.0000;537.0000;101.8975;-0.0082;0.0000;
1611;941.79;10618.07;-10618.07;0.0000;487.0000;553.0000;553.0000;113.5524;-0.0552;0.0000;
1612;942.12;10614.38;-10614.38;0.0000;585.0000;521.0000;521.0000;89.0598;0.0503;0.0000;
1613;942.45;10610.68;-10610.68;0.0000;585.0000;559.0000;559.0000;95.5556;0.0197;0.0000;
1614;942.77;10606.99;-10606.99;0.0000;489.0000;483.0000;483.0000;98.7730;0.0054;0.0000;
1615;943.10;10603.31;-10603.31;0.0000;509.0000;613.0000;613.0000;120.4322;-0.0807;0.0000;
1616;943.43;10599.62;-10599.62;0.0000;495.0000;481.0000;481.0000;97.1717;0.0125;0.0000;
1617;943.76;10595.94;-10595.94;0.0000;563.0000;507.0000;507.0000;90.0533;0.0455;0.0000;
1618;944.08;10592.27;-10592.27;0.0000;513.0000;581.0000;581.0000;113.2554;-0.0541;0.0000;
1619;944.41;10588.60;-10588.60;0.0000;449.0000;527.0000;527.0000;117.3719;-0.0696;0.0000;
1620;944.74;10584.93;-10584.93;0.0000;529.0000;545.0000;545.0000;103.0246;-0.0129;0.0000;
1621;945.07;10581.26;-10581.26;0.0000;499.0000;539.0000;539.0000;108.0160;-0.0335;0.0000;
1622;945.39;10577.60;-10577.60;0.0000;441.0000;451.0000;451.0000;102.2676;-0.0097;0.0000;
1623;945.72;10573.94;-10573.94;0.0000;441.0000;437.0000;437.0000;99.0930;0.0040;0.0000;
1624;946.05;10570.28;-10570.28;0.0000;405.0000;437.0000;437.0000;107.9012;-0.0330;0.0000;
1625;946.38;10566.63;-10566.63;0.0000;313.0000;519.0000;519.0000;165.8147;-0.2196;0.0000;
1626;946.70;10562.98;-10562.98;0.0000;385.0000;461.0000;461.0000;119.7403;-0.0782;0.0000;
1627;947.03;10559.34;-10559.34;0.0000;467.0000;467.0000;467.0000;100.0000;0.0000;0.0000;
1628;947.36;10555.69;-10555.69;0.0000;451.0000;515.0000;515.0000;114.1907;-0.0576;0.0000;
1629;947.68;10552.06;-10552.06;0.0000;389.0000;569.0000;569.0000;146.2725;-0.1652;0.0000;
1630;948.01;10548.42;-10548.42;0.0000;401.0000;511.0000;511.0000;127.4314;-0.1053;0.0000;
1631;948.34;10544.79;-10544.79;0.0000;449.0000;529.0000;529.0000;117.8174;-0.0712;0.0000;
1632;948.66;10541.16;-10541.16;0.0000;375.0000;431.0000;431.0000;114.9333;-0.0604;0.0000;
1633;948.99;10537.53;-10537.53;0.0000;413.0000;545.0000;545.0000;131.9613;-0.1204;0.0000;
1634;949.31;10533.91;-10533.91;0.0000;511.0000;483.0000;483.0000;94.5205;0.0245;0.0000;
1635;949.64;10530.29;-10530.29;0.0000;409.0000;459.0000;459.0000;112.2249;-0.0501;0.0000;
1636;949.97;10526.68;-10526.68;0.0000;333.0000;399.0000;399.0000;119.8198;-0.0785;0.0000;
1637;950.29;10523.07;-10523.07;0.0000;413.0000;445.0000;445.0000;107.7482;-0.0324;0.0000;
1638;950.62;10519.46;-10519.46;0.0000;429.0000;501.0000;501.0000;116.7832;-0.0674;0.0000;
1639;950.95;10515.85;-10515.85;0.0000;425.0000;525.0000;525.0000;123.5294;-0.0918;0.0000;
1640;951.27;10512.25;-10512.25;0.0000;421.0000;525.0000;525.0000;124.7031;-0.0959;0.0000;
1641;951.60;10508.65;-10508.65;0.0000;391.0000;415.0000;415.0000;106.1381;-0.0259;0.0000;
1642;951.92;10505.06;-10505.06;0.0000;403.0000;441.0000;441.0000;109.4293;-0.0391;0.0000;
1643;952.25;10501.47;-10501.47;0.0000;325.0000;403.0000;403.0000;124.0000;-0.0934;0.0000;
1644;952.57;10497.88;-10497.88;0.0000;381.0000;357.0000;357.0000;93.7008;0.0283;0.0000;
1645;952.90;10494.29;-10494.29;0.0000;455.0000;525.0000;525.0000;115.3846;-0.0621;0.0000;
1646;953.22;10490.71;-10490.71;0.0000;443.0000;453.0000;453.0000;102.2573;-0.0097;0.0000;
1647;953.55;10487.13;-10487.13;0.0000;397.0000;393.0000;393.0000;98.9924;0.0044;0.0000;
1648;953.87;10483.56;-10483.56;0.0000;435.0000;485.0000;485.0000;111.4943;-0.0473;0.0000;
1649;954.20;10479.98;-10479.98;0.0000;465.0000;399.0000;399.0000;85.8065;0.0665;0.0000;
1650;954.53;10476.41;-10476.41;0.0000;417.0000;397.0000;397.0000;95.2038;0.0213;0.0000;
1651;954.85;10472.85;-10472.85;0.0000;345.0000;359.0000;359.0000;104.0580;-0.0173;0.0000;
1652;955.17;10469.29;-10469.29;0.0000;397.0000;413.0000;413.0000;104.0302;-0.0172;0.0000;
1653;955.50;10465.73;-10465.73;0.0000;299.0000;559.0000;559.0000;186.9565;-0.2717;0.0000;
1654;955.82;10462.17;-10462.17;0.0000;325.0000;479.0000;479.0000;147.3846;-0.1685;0.0000;
1655;956.15;10458.62;-10458.62;0.0000;407.0000;407.0000;407.0000;100.0000;0.0000;0.0000;
1656;956.47;10455.07;-10455.07;0.0000;369.0000;481.0000;481.0000;130.3523;-0.1151;0.0000;
1657;956.80;10451.52;-10451.52;0.0000;263.0000;397.0000;397.0000;150.9506;-0.1788;0.0000;
1658;957.12;10447.98;-10447.98;0.0000;325.0000;417.0000;417.0000;128.3077;-0.1083;0.0000;
1659;957.45;10444.44;-10444.44;0.0000;303.0000;445.0000;445.0000;146.8647;-0.1669;0.0000;
1660;957.77;10440.91;-10440.91;0.0000;305.0000;417.0000;417.0000;136.7213;-0.1358;0.0000;
1661;958.10;10437.37;-10437.37;0.0000;241.0000;345.0000;345.0000;143.1535;-0.1558;0.0000;
1662;958.42;10433.84;-10433.84;0.0000;303.0000;481.0000;481.0000;158.7459;-0.2007;0.0000;
1663;958.74;10430.32;-10430.32;0.0000;347.0000;375.0000;375.0000;108.0692;-0.0337;0.0000;
1664;959.07;10426.79;-10426.79;0.0000;401.0000;437.0000;437.0000;108.9776;-0.0373;0.0000;
1665;959.39;10423.27;-10423.27;0.0000;325.0000;431.0000;431.0000;132.6154;-0.1226;0.0000;
1666;959.72;10419.76;-10419.76;0.0000;309.0000;339.0000;339.0000;109.7087;-0.0402;0.0000;
1667;960.04;10416.24;-10416.24;0.0000;285.0000;363.0000;363.0000;127.3684;-0.1051;0.0000;
1668;960.36;10412.73;-10412.73;0.0000;255.0000;381.0000;381.0000;149.4118;-0.1744;0.0000;
1669;960.69;10409.22;-10409.22;0.0000;229.0000;411.0000;411.0000;179.4760;-0.2540;0.0000;
1670;961.01;10405.72;-10405.72;0.0000;293.0000;425.0000;425.0000;145.0512;-0.1615;0.0000;
1671;961.33;10402.22;-10402.22;0.0000;249.0000;305.0000;305.0000;122.4900;-0.0881;0.0000;
1672;961.66;10398.72;-10398.72;0.0000;335.0000;345.0000;345.0000;102.9851;-0.0128;0.0000;
1673;961.98;10395.23;-10395.23;0.0000;323.0000;267.0000;267.0000;82.6625;0.0827;0.0000;
1674;962.30;10391.74;-10391.74;0.0000;309.0000;403.0000;403.0000;130.4207;-0.1153;0.0000;
1675;962.63;10388.25;-10388.25;0.0000;249.0000;329.0000;329.0000;132.1285;-0.1210;0.0000;
1676;962.95;10384.76;-10384.76;0.0000;179.0000;407.0000;407.0000;227.3743;-0.3567;0.0000;
1677;963.27;10381.28;-10381.28;0.0000;281.0000;339.0000;339.0000;120.6406;-0.0815;0.0000;
1678;963.60;10377.80;-10377.80;0.0000;351.0000;311.0000;311.0000;88.6040;0.0525;0.0000;
1679;963.92;10374.33;-10374.33;0.0000;217.0000;285.0000;285.0000;131.3364;-0.1184;0.0000;
1680;964.24;10370.86;-10370.86;0.0000;385.0000;313.0000;313.0000;81.2987;0.0899;0.0000;
1681;964.56;10367.39;-10367.39;0.0000;301.0000;371.0000;371.0000;123.2558;-0.0908;0.0000;
1682;964.89;10363.92;-10363.92;0.0000;325.0000;343.0000;343.0000;105.5385;-0.0234;0.0000;
1683;965.21;10360.46;-10360.46;0.0000;333.0000;347.0000;347.0000;104.2042;-0.0179;0.0000;
1684;965.53;10357.00;-10357.00;0.0000;237.0000;457.0000;457.0000;192.8270;-0.2852;0.0000;
1685;965.85;10353.54;-10353.54;0.0000;299.0000;441.0000;441.0000;147.4916;-0.1688;0.0000;
1686;966.18;10350.09;-10350.09;0.0000;305.0000;317.0000;317.0000;103.9344;-0.0168;0.0000;
1687;966.50;10346.64;-10346.64;0.0000;245.0000;257.0000;257.0000;104.8980;-0.0208;0.0000;
1688;966.82;10343.19;-10343.19;0.0000;335.0000;339.0000;339.0000;101.1940;-0.0052;0.0000;
1689;967.14;10339.75;-10339.75;0.0000;275.0000;423.0000;423.0000;153.8182;-0.1870;0.0000;
1690;967.46;10336.31;-10336.31;0.0000;245.0000;343.0000;343.0000;140.0000;-0.1461;0.0000;
1691;967.79;10332.87;-10332.87;0.0000;277.0000;305.0000;305.0000;110.1083;-0.0418;0.0000;
1692;968.11;10329.44;-10329.44;0.0000;281.0000;287.0000;287.0000;102.1352;-0.0092;0.0000;
1693;968.43;10326.00;-10326.00;0.0000;251.0000;363.0000;363.0000;144.6215;-0.1602;0.0000;
1694;968.75;10322.58;-10322.58;0.0000;207.0000;281.0000;281.0000;135.7488;-0.1327;0.0000;
1695;969.07;10319.15;-10319.15;0.0000;237.0000;331.0000;331.0000;139.6624;-0.1451;0.0000;
1696;969.39;10315.73;-10315.73;0.0000;259.0000;289.0000;289.0000;111.5830;-0.0476;0.0000;
1697;969.71;10312.31;-10312.31;0.0000;229.0000;181.0000;181.0000;79.0393;0.1022;0.0000;
1698;970.04;10308.89;-10308.89;0.0000;273.0000;301.0000;301.0000;110.2564;-0.0424;0.0000;
1699;970.36;10305.48;-10305.48;0.0000;289.0000;261.0000;261.0000;90.3114;0.0443;0.0000;
1700;970.68;10302.07;-10302.07;0.0000;137.0000;235.0000;235.0000;171.5328;-0.2343;0.0000;
1701;971.00;10298.66;-10298.66;0.0000;213.0000;305.0000;305.0000;143.1925;-0.1559;0.0000;
1702;971.32;10295.26;-10295.26;0.0000;237.0000;249.0000;249.0000;105.0633;-0.0215;0.0000;
1703;971.64;10291.86;-10291.86;0.0000;235.0000;209.0000;209.0000;88.9362;0.0509;0.0000;
1704;971.96;10288.46;-10288.46;0.0000;265.0000;227.0000;227.0000;85.6604;0.0672;0.0000;
1705;972.28;10285.07;-10285.07;0.0000;343.0000;207.0000;207.0000;60.3499;0.2193;0.0000;
1706;972.60;10281.68;-10281.68;0.0000;291.0000;249.0000;249.0000;85.5670;0.0677;0.0000;
1707;972.92;10278.29;-10278.29;0.0000;193.0000;327.0000;327.0000;169.4301;-0.2290;0.0000;
1708;973.25;10274.90;-10274.90;0.0000;197.0000;315.0000;315.0000;159.8985;-0.2038;0.0000;
1709;973.57;10271.52;-10271.52;0.0000;201.0000;251.0000;251.0000;124.8756;-0.0965;0.0000;
1710;973.89;10268.14;-10268.14;0.0000;221.0000;227.0000;227.0000;102.7149;-0.0116;0.0000;
1711;974.21;10264.77;-10264.77;0.0000;229.0000;167.0000;167.0000;72.9258;0.1371;0.0000;
1712;974.53;10261.39;-10261.39;0.0000;209.0000;209.0000;209.0000;100.0000;0.0000;0.0000;
1713;974.85;10258.02;-10258.02;0.0000;155.0000;253.0000;253.0000;163.2258;-0.2128;0.0000;
1714;975.17;10254.66;-10254.66;0.0000;223.0000;255.0000;255.0000;114.3498;-0.0582;0.0000;
1715;975.49;10251.29;-10251.29;0.0000;147.0000;269.0000;269.0000;182.9932;-0.2624;0.0000;
1716;975.81;10247.93;-10247.93;0.0000;201.0000;279.0000;279.0000;138.8060;-0.1424;0.0000;
1717;976.13;10244.58;-10244.58;0.0000;137.0000;277.0000;277.0000;202.1898;-0.3058;0.0000;
1718;976.45;10241.22;-10241.22;0.0000;209.0000;295.0000;295.0000;141.1483;-0.1497;0.0000;
1719;976.77;10237.87;-10237.87;0.0000;183.0000;219.0000;219.0000;119.6721;-0.0780;0.0000;
1720;977.09;10234.52;-10234.52;0.0000;169.0000;267.0000;267.0000;157.9882;-0.1986;0.0000;
1721;977.40;10231.17;-10231.17;0.0000;153.0000;185.0000;185.0000;120.9150;-0.0825;0.0000;
1722;977.72;10227.83;-10227.83;0.0000;99.0000;177.0000;177.0000;178.7879;-0.2523;0.0000;
1723;978.04;10224.49;-10224.49;0.0000;211.0000;145.0000;145.0000;68.7204;0.1629;0.0000;
1724;978.36;10221.15;-10221.15;0.0000;179.0000;237.0000;237.0000;132.4022;-0.1219;0.0000;
1725;978.68;10217.82;-10217.82;0.0000;73.0000;265.0000;265.0000;363.0137;-0.5599;0.0000;
1726;979.00;10214.49;-10214.49;0.0000;137.0000;279.0000;279.0000;203.6496;-0.3089;0.0000;
1727;979.32;10211.16;-10211.16;0.0000;273.0000;195.0000;195.0000;71.4286;0.1461;0.0000;
1728;979.64;10207.84;-10207.84;0.0000;217.0000;161.0000;161.0000;74.1935;0.1296;0.0000;
1729;979.96;10204.52;-10204.52;0.0000;153.0000;211.0000;211.0000;137.9085;-0.1396;0.0000;
1730;980.28;10201.20;-10201.20;0.0000;175.0000;187.0000;187.0000;106.8571;-0.0288;0.0000;
1731;980.60;10197.88;-10197.88;0.0000;177.0000;173.0000;173.0000;97.7401;0.0099;0.0000;
1732;980.91;10194.57;-10194.57;0.0000;193.0000;157.0000;157.0000;81.3472;0.0897;0.0000;
1733;981.23;10191.26;-10191.26;0.0000;233.0000;155.0000;155.0000;66.5236;0.1770;0.0000;
1734;981.55;10187.95;-10187.95;0.0000;171.0000;135.0000;135.0000;78.9474;0.1027;0.0000;
1735;981.87;10184.65;-10184.65;0.0000;169.0000;223.0000;223.0000;131.9527;-0.1204;0.0000;
1736;982.19;10181.35;-10181.35;0.0000;113.0000;193.0000;193.0000;170.7965;-0.2325;0.0000;
1737;982.51;10178.05;-10178.05;0.0000;167.0000;177.0000;177.0000;105.9880;-0.0253;0.0000;
1738;982.82;10174.75;-10174.75;0.0000;77.0000;177.0000;177.0000;229.8701;-0.3615;0.0000;
1739;983.14;10171.46;-10171.46;0.0000;109.0000;207.0000;207.0000;189.9083;-0.2785;0.0000;
1740;983.46;10168.17;-10168.17;0.0000;123.0000;219.0000;219.0000;178.0488;-0.2505;0.0000;
1741;983.78;10164.89;-10164.89;0.0000;83.0000;131.0000;131.0000;157.8313;-0.1982;0.0000;
1742;984.10;10161.60;-10161.60;0.0000;137.0000;181.0000;181.0000;132.1168;-0.1210;0.0000;
1743;984.41;10158.32;-10158.32;0.0000;207.0000;247.0000;247.0000;119.3237;-0.0767;0.0000;
1744;984.73;10155.04;-10155.04;0.0000;113.0000;149.0000;149.0000;131.8584;-0.1201;0.0000;
1745;985.05;10151.77;-10151.77;0.0000;195.0000;145.0000;145.0000;74.3590;0.1287;0.0000;
1746;985.37;10148.50;-10148.50;0.0000;145.0000;183.0000;183.0000;126.2069;-0.1011;0.0000;
1747;985.69;10145.23;-10145.23;0.0000;119.0000;193.0000;193.0000;162.1849;-0.2100;0.0000;
1748;986.00;10141.96;-10141.96;0.0000;103.0000;143.0000;143.0000;138.8350;-0.1425;0.0000;
1749;986.32;10138.70;-10138.70;0.0000;67.0000;203.0000;203.0000;302.9851;-0.4814;0.0000;
1750;986.64;10135.44;-10135.44;0.0000;109.0000;195.0000;195.0000;178.8991;-0.2526;0.0000;
1751;986.95;10132.18;-10132.18;0.0000;113.0000;79.0000;79.0000;69.9115;0.1555;0.0000;
1752;987.27;10128.93;-10128.93;0.0000;125.0000;229.0000;229.0000;183.2000;-0.2629;0.0000;
1753;987.59;10125.68;-10125.68;0.0000;35.0000;173.0000;173.0000;494.2857;-0.6940;0.0000;
1754;987.91;10122.43;-10122.43;0.0000;47.0000;173.0000;173.0000;368.0851;-0.5659;0.0000;
1755;988.22;10119.18;-10119.18;0.0000;113.0000;219.0000;219.0000;193.8053;-0.2874;0.0000;
1756;988.54;10115.94;-10115.94;0.0000;109.0000;153.0000;153.0000;140.3670;-0.1473;0.0000;
1757;988.86;10112.70;-10112.70;0.0000;145.0000;119.0000;119.0000;82.0690;0.0858;0.0000;
1758;989.17;10109.46;-10109.46;0.0000;113.0000;91.0000;91.0000;80.5310;0.0940;0.0000;
1759;989.49;10106.23;-10106.23;0.0000;57.0000;65.0000;65.0000;114.0351;-0.0570;0.0000;
1760;989.81;10103.00;-10103.00;0.0000;129.0000;155.0000;155.0000;120.1550;-0.0797;0.0000;
1761;990.12;10099.77;-10099.77;0.0000;61.0000;139.0000;139.0000;227.8689;-0.3577;0.0000;
1762;990.44;10096.54;-10096.54;0.0000;129.0000;107.0000;107.0000;82.9457;0.0812;0.0000;
1763;990.75;10093.32;-10093.32;0.0000;129.0000;127.0000;127.0000;98.4496;0.0068;0.0000;
1764;991.07;10090.10;-10090.10;0.0000;1.0000;75.0000;75.0000;7500.0000;-1.8751;0.0000;
1765;991.39;10086.88;-10086.88;0.0000;45.0000;99.0000;99.0000;220.0000;-0.3424;0.0000;
1766;991.70;10083.67;-10083.67;0.0000;117.0000;81.0000;81.0000;69.2308;0.1597;0.0000;
1767;992.02;10080.46;-10080.46;0.0000;133.0000;183.0000;183.0000;137.5940;-0.1386;0.0000;
1768;992.33;10077.25;-10077.25;0.0000;109.0000;143.0000;143.0000;131.1927;-0.1179;0.0000;
1769;992.65;10074.05;-10074.05;0.0000;21.0000;147.0000;147.0000;700.0000;-0.8451;0.0000;
1770;992.97;10070.84;-10070.84;0.0000;53.0000;197.0000;197.0000;371.6981;-0.5702;0.0000;
1771;993.28;10067.64;-10067.64;0.0000;53.0000;195.0000;195.0000;367.9245;-0.5658;0.0000;
1772;993.60;10064.45;-10064.45;0.0000;29.0000;97.0000;97.0000;334.4828;-0.5244;0.0000;
1773;993.91;10061.25;-10061.25;0.0000;45.0000;107.0000;107.0000;237.7778;-0.3762;0.0000;
1774;994.23;10058.06;-10058.06;0.0000;17.0000;73.0000;73.0000;429.4118;-0.6329;0.0000;
1775;994.54;10054.87;-10054.87;0.0000;3.0000;137.0000;137.0000;4566.6667;-1.6596;0.0000;
1776;994.86;10051.69;-10051.69;0.0000;87.0000;169.0000;169.0000;194.2529;-0.2884;0.0000;
1777;995.17;10048.50;-10048.50;0.0000;119.0000;121.0000;121.0000;101.6807;-0.0072;0.0000;
1778;995.49;10045.32;-10045.32;0.0000;101.0000;209.0000;209.0000;206.9307;-0.3158;0.0000;
1779;995.80;10042.15;-10042.15;0.0000;77.0000;129.0000;129.0000;167.5325;-0.2241;0.0000;
1780;996.12;10038.97;-10038.97;0.0000;0.0000;75.0000;75.0000;0.0000;0.0000;0.0000;
1781;996.43;10035.80;-10035.80;0.0000;39.0000;85.0000;85.0000;217.9487;-0.3384;0.0000;
1782;996.75;10032.63;-10032.63;0.0000;33.0000;91.0000;91.0000;275.7576;-0.4405;0.0000;
1783;997.06;10029.46;-10029.46;0.0000;63.0000;21.0000;21.0000;33.3333;0.4771;0.0000;
1784;997.38;10026.30;-10026.30;0.0000;31.0000;45.0000;45.0000;145.1613;-0.1619;0.0000;
1785;997.69;10023.14;-10023.14;0.0000;69.0000;115.0000;115.0000;166.6667;-0.2218;0.0000;
1786;998.01;10019.98;-10019.98;0.0000;0.0000;135.0000;135.0000;0.0000;0.0000;0.0000;
1787;998.32;10016.83;-10016.83;0.0000;81.0000;49.0000;49.0000;60.4938;0.2183;0.0000;
1788;998.63;10013.67;-10013.67;0.0000;1.0000;3.0000;3.0000;300.0000;-0.4771;0.0000;
1789;998.95;10010.52;-10010.52;0.0000;27.0000;35.0000;35.0000;129.6296;-0.1127;0.0000;
1790;999.26;10007.38;-10007.38;0.0000;39.0000;1.0000;1.0000;2.5641;1.5911;0.0000;
1791;999.58;10004.23;-10004.23;0.0000;41.0000;57.0000;57.0000;139.0244;-0.1431;0.0000;
1792;999.89;10001.09;-10001.09;0.0000;13.0000;77.0000;77.0000;592.3077;-0.7725;0.0000;
1793;1000.20;9997.95;-9997.95;0.0000;11.0000;105.0000;105.0000;954.5455;-0.9798;0.0000;
1794;1000.52;9994.82;-9994.82;0.0000;0.0000;25.0000;25.0000;0.0000;0.0000;0.0000;
1795;1000.83;9991.69;-9991.69;0.0000;0.0000;39.0000;39.0000;0.0000;0.0000;0.0000;
1796;1001.15;9988.56;-9988.56;0.0000;0.0000;81.0000;81.0000;0.0000;0.0000;0.0000;
1797;1001.46;9985.43;-9985.43;0.0000;0.0000;117.0000;117.0000;0.0000;0.0000;0.0000;
1798;1001.77;9982.30;-9982.30;0.0000;0.0000;125.0000;125.0000;0.0000;0.0000;0.0000;
1799;1002.09;9979.18;-9979.18;0.0000;1.0000;31.0000;31.0000;3100.0000;-1.4914;0.0000;
1800;1002.40;9976.06;-9976.06;0.0000;0.0000;0.0000;0.0000;0.0000;0.0000;0.0000;
1801;1002.71;9972.95;-9972.95;0.0000;19.0000;53.0000;53.0000;278.9474;-0.4455;0.0000;
1802;1003.03;9969.83;-9969.83;0.0000;59.0000;45.0000;45.0000;76.2712;0.1176;0.0000;
1803;1003.34;9966.72;-9966.72;0.0000;43.0000;41.0000;41.0000;95.3488;0.0207;0.0000;
1804;1003.65;9963.61;-9963.61;0.0000;0.0000;31.0000;31.0000;0.0000;0.0000;0.0000;
1805;1003.96;9960.51;-9960.51;0.0000;0.0000;0.0000;0.0000;0.0000;0.0000;0.0000;
1806;1004.28;9957.40;-9957.40;0.0000;0.0000;1.0000;1.0000;0.0000;0.0000;0.0000;
1807;1004.59;9954.30;-9954.30;0.0000;101.0000;51.0000;51.0000;50.4950;0.2968;0.0000;
1808;1004.90;9951.21;-9951.21;0.0000;0.0000;67.0000;67.0000;0.0000;0.0000;0.0000;
1809;1005.22;9948.11;-9948.11;0.0000;23.0000;65.0000;65.0000;282.6087;-0.4512;0.0000;
1810;1005.53;9945.02;-9945.02;0.0000;0.0000;55.0000;55.0000;0.0000;0.0000;0.0000;
1811;1005.84;9941.93;-9941.93;0.0000;0.0000;0.0000;0.0000;0.0000;0.0000;0.0000;
1812;1006.15;9938.84;-9938.84;0.0000;7.0000;15.0000;15.0000;214.2857;-0.3310;0.0000;
1813;1006.47;9935.76;-9935.76;0.0000;55.0000;5.0000;5.0000;9.0909;1.0414;0.0000;
1814;1006.78;9932.68;-9932.68;0.0000;0.0000;0.0000;0.0000;0.0000;0.0000;0.0000;
1815;1007.09;9929.60;-9929.60;0.0000;0.0000;1.0000;1.0000;0.0000;0.0000;0.0000;
1816;1007.40;9926.52;-9926.52;0.0000;13.0000;0.0000;0.0000;0.0000;0.0000;0.0000;
1817;1007.71;9923.45;-9923.45;0.0000;0.0000;45.0000;45.0000;0.0000;0.0000;0.0000;
1818;1008.03;9920.38;-9920.38;0.0000;0.0000;51.0000;51.0000;0.0000;0.0000;0.0000;
1819;1008.34;9917.31;-9917.31;0.0000;0.0000;41.0000;41.0000;0.0000;0.0000;0.0000;
1820;1008.65;9914.25;-9914.25;0.0000;21.0000;39.0000;39.0000;185.7143;-0.2688;0.0000;
1821;1008.96;9911.18;-9911.18;0.0000;0.0000;1.0000;1.0000;0.0000;0.0000;0.0000;
1822;1009.27;9908.13;-9908.13;0.0000;0.0000;25.0000;25.0000;0.0000;0.0000;0.0000;
1823;1009.58;9905.07;-9905.07;0.0000;0.0000;45.0000;45.0000;0.0000;0.0000;0.0000;
1824;1009.90;9902.01;-9902.01;0.0000;0.0000;39.0000;39.0000;0.0000;0.0000;0.0000;
1825;1010.21;9898.96;-9898.96;0.0000;0.0000;13.0000;13.0000;0.0000;0.0000;0.0000;
1826;1010.52;9895.91;-9895.91;0.0000;0.0000;0.0000;0.0000;0.0000;0.0000;0.0000;
1827;1010.83;9892.87;-9892.87;0.0000;0.0000;0.0000;0.0000;0.0000;0.0000;0.0000;
1828;1011.14;9889.82;-9889.82;0.0000;0.0000;1.0000;1.0000;0.0000;0.0000;0.0000;
1829;1011.45;9886.78;-9886.78;0.0000;0.0000;13.0000;13.0000;0.0000;0.0000;0.0000;
1830;1011.76;9883.74;-9883.74;0.0000;0.0000;0.0000;0.0000;0.0000;0.0000;0.0000;
1831;1012.07;9880.71;-9880.71;0.0000;0.0000;0.0000;0.0000;0.0000;0.0000;0.0000;
1832;1012.38;9877.67;-9877.67;0.0000;0.0000;0.0000;0.0000;0.0000;0.0000;0.0000;
1833;1012.69;9874.64;-9874.64;0.0000;0.0000;0.0000;0.0000;0.0000;0.0000;0.0000;
1834;1013.01;9871.61;-9871.61;0.0000;0.0000;91.0000;91.0000;0.0000;0.0000;0.0000;
1835;1013.32;9868.59;-9868.59;0.0000;0.0000;1.0000;1.0000;0.0000;0.0000;0.0000;
1836;1013.63;9865.57;-9865.57;0.0000;0.0000;0.0000;0.0000;0.0000;0.0000;0.0000;
1837;1013.94;9862.55;-9862.55;0.0000;0.0000;23.0000;23.0000;0.0000;0.0000;0.0000;
1838;1014.25;9859.53;-9859.53;0.0000;0.0000;0.0000;0.0000;0.0000;0.0000;0.0000;
1839;1014.56;9856.51;-9856.51;0.0000;0.0000;0.0000;0.0000;0.0000;0.0000;0.0000;
1840;1014.87;9853.50;-9853.50;0.0000;0.0000;19.0000;19.0000;0.0000;0.0000;0.0000;
1841;1015.18;9850.49;-9850.49;0.0000;0.0000;0.0000;0.0000;0.0000;0.0000;0.0000;
1842;1015.49;9847.48;-9847.48;0.0000;0.0000;0.0000;0.0000;0.0000;0.0000;0.0000;
1843;1015.80;9844.48;-9844.48;0.0000;0.0000;0.0000;0.0000;0.0000;0.0000;0.0000;
1844;1016.11;9841.48;-9841.48;0.0000;0.0000;3.0000;3.0000;0.0000;0.0000;0.0000;
1845;1016.42;9838.48;-9838.48;0.0000;0.0000;0.0000;0.0000;0.0000;0.0000;0.0000;
1846;1016.73;9835.48;-9835.48;0.0000;0.0000;0.0000;0.0000;0.0000;0.0000;0.0000;
1847;1017.04;9832.49;-9832.49;0.0000;0.0000;0.0000;0.0000;0.0000;0.0000;0.0000;
1848;1017.35;9829.49;-9829.49;0.0000;0.0000;15.0000;15.0000;0.0000;0.0000;0.0000;
1849;1017.66;9826.51;-9826.51;0.0000;0.0000;0.0000;0.0000;0.0000;0.0000;0.0000;
1850;1017.97;9823.52;-9823.52;0.0000;0.0000;0.0000;0.0000;0.0000;0.0000;0.0000;
1851;1018.27;9820.54;-9820.54;0.0000;0.0000;0.0000;0.0000;0.0000;0.0000;0.0000;
1852;1018.58;9817.55;-9817.55;0.0000;0.0000;1.0000;1.0000;0.0000;0.0000;0.0000;
1853;1018.89;9814.58;-9814.58;0.0000;0.0000;9.0000;9.0000;0.0000;0.0000;0.0000;
1854;1019.20;9811.60;-9811.60;0.0000;0.0000;0.0000;0.0000;0.0000;0.0000;0.0000;
1855;1019.51;9808.63;-9808.63;0.0000;0.0000;1.0000;1.0000;0.0000;0.0000;0.0000;
1856;1019.82;9805.65;-9805.65;0.0000;0.0000;15.0000;15.0000;0.0000;0.0000;0.0000;
1857;1020.13;9802.69;-9802.69;0.0000;0.0000;0.0000;0.0000;0.0000;0.0000;0.0000;
1858;1020.44;9799.72;-9799.72;0.0000;0.0000;0.0000;0.0000;0.0000;0.0000;0.0000;
1859;1020.75;9796.76;-9796.76;0.0000;0.0000;0.0000;0.0000;0.0000;0.0000;0.0000;
1860;1021.05;9793.80;-9793.80;0.0000;0.0000;0.0000;0.0000;0.0000;0.0000;0.0000;
1861;1021.36;9790.84;-9790.84;0.0000;0.0000;0.0000;0.0000;0.0000;0.0000;0.0000;
1862;1021.67;9787.88;-9787.88;0.0000;0.0000;0.0000;0.0000;0.0000;0.0000;0.0000;
1863;1021.98;9784.93;-9784.93;0.0000;0.0000;0.0000;0.0000;0.0000;0.0000;0.0000;
1864;1022.29;9781.98;-9781.98;0.0000;0.0000;0.0000;0.0000;0.0000;0.0000;0.0000;
1865;1022.60;9779.03;-9779.03;0.0000;0.0000;0.0000;0.0000;0.0000;0.0000;0.0000;
1866;1022.90;9776.08;-9776.08;0.0000;0.0000;0.0000;0.0000;0.0000;0.0000;0.0000;
1867;1023.21;9773.14;-9773.14;0.0000;0.0000;1.0000;1.0000;0.0000;0.0000;0.0000;
1868;1023.52;9770.20;-9770.20;0.0000;0.0000;0.0000;0.0000;0.0000;0.0000;0.0000;
1869;1023.83;9767.26;-9767.26;0.0000;0.0000;0.0000;0.0000;0.0000;0.0000;0.0000;
1870;1024.14;9764.33;-9764.33;0.0000;0.0000;0.0000;0.0000;0.0000;0.0000;0.0000;
1871;1024.44;9761.39;-9761.39;0.0000;0.0000;0.0000;0.0000;0.0000;0.0000;0.0000;
1872;1024.75;9758.46;-9758.46;0.0000;0.0000;0.0000;0.0000;0.0000;0.0000;0.0000;
1873;1025.06;9755.54;-9755.54;0.0000;0.0000;0.0000;0.0000;0.0000;0.0000;0.0000;
1874;1025.37;9752.61;-9752.61;0.0000;0.0000;0.0000;0.0000;0.0000;0.0000;0.0000;
1875;1025.67;9749.69;-9749.69;0.0000;0.0000;0.0000;0.0000;0.0000;0.0000;0.0000;
1876;1025.98;9746.77;-9746.77;0.0000;0.0000;0.0000;0.0000;0.0000;0.0000;0.0000;
1877;1026.29;9743.85;-9743.85;0.0000;0.0000;0.0000;0.0000;0.0000;0.0000;0.0000;
1878;1026.60;9740.93;-9740.93;0.0000;0.0000;0.0000;0.0000;0.0000;0.0000;0.0000;
1879;1026.90;9738.02;-9738.02;0.0000;0.0000;7.0000;7.0000;0.0000;0.0000;0.0000;
1880;1027.21;9735.11;-9735.11;0.0000;0.0000;0.0000;0.0000;0.0000;0.0000;0.0000;
1881;1027.52;9732.20;-9732.20;0.0000;0.0000;0.0000;0.0000;0.0000;0.0000;0.0000;
1882;1027.82;9729.30;-9729.30;0.0000;0.0000;0.0000;0.0000;0.0000;0.0000;0.0000;
1883;1028.13;9726.39;-9726.39;0.0000;0.0000;0.0000;0.0000;0.0000;0.0000;0.0000;
1884;1028.44;9723.49;-9723.49;0.0000;0.0000;0.0000;0.0000;0.0000;0.0000;0.0000;
1885;1028.74;9720.60;-9720.60;0.0000;0.0000;0.0000;0.0000;0.0000;0.0000;0.0000;
1886;1029.05;9717.70;-9717.70;0.0000;0.0000;0.0000;0.0000;0.0000;0.0000;0.0000;
1887;1029.36;9714.81;-9714.81;0.0000;0.0000;0.0000;0.0000;0.0000;0.0000;0.0000;
1888;1029.66;9711.92;-9711.92;0.0000;0.0000;0.0000;0.0000;0.0000;0.0000;0.0000;
1889;1029.97;9709.03;-9709.03;0.0000;0.0000;0.0000;0.0000;0.0000;0.0000;0.0000;
1890;1030.28;9706.14;-9706.14;0.0000;0.0000;0.0000;0.0000;0.0000;0.0000;0.0000;
1891;1030.58;9703.26;-9703.26;0.0000;0.0000;0.0000;0.0000;0.0000;0.0000;0.0000;
1892;1030.89;9700.38;-9700.38;0.0000;0.0000;0.0000;0.0000;0.0000;0.0000;0.0000;
1893;1031.19;9697.50;-9697.50;0.0000;0.0000;0.0000;0.0000;0.0000;0.0000;0.0000;
1894;1031.50;9694.63;-9694.63;0.0000;0.0000;0.0000;0.0000;0.0000;0.0000;0.0000;
1895;1031.81;9691.75;-9691.75;0.0000;0.0000;1.0000;1.0000;0.0000;0.0000;0.0000;
1896;1032.11;9688.88;-9688.88;0.0000;0.0000;0.0000;0.0000;0.0000;0.0000;0.0000;
1897;1032.42;9686.01;-9686.01;0.0000;0.0000;0.0000;0.0000;0.0000;0.0000;0.0000;
1898;1032.72;9683.15;-9683.15;0.0000;0.0000;0.0000;0.0000;0.0000;0.0000;0.0000;
1899;1033.03;9680.28;-9680.28;0.0000;0.0000;0.0000;0.0000;0.0000;0.0000;0.0000;
1900;1033.33;9677.42;-9677.42;0.0000;0.0000;0.0000;0.0000;0.0000;0.0000;0.0000;
1901;1033.64;9674.56;-9674.56;0.0000;0.0000;0.0000;0.0000;0.0000;0.0000;0.0000;
1902;1033.94;9671.71;-9671.71;0.0000;0.0000;0.0000;0.0000;0.0000;0.0000;0.0000;
1903;1034.25;9668.85;-9668.85;0.0000;0.0000;0.0000;0.0000;0.0000;0.0000;0.0000;
1904;1034.55;9666.00;-9666.00;0.0000;0.0000;0.0000;0.0000;0.0000;0.0000;0.0000;
1905;1034.86;9663.15;-9663.15;0.0000;0.0000;0.0000;0.0000;0.0000;0.0000;0.0000;
1906;1035.16;9660.31;-9660.31;0.0000;0.0000;0.0000;0.0000;0.0000;0.0000;0.0000;
1907;1035.47;9657.46;-9657.46;0.0000;0.0000;0.0000;0.0000;0.0000;0.0000;0.0000;
1908;1035.77;9654.62;-9654.62;0.0000;0.0000;0.0000;0.0000;0.0000;0.0000;0.0000;
1909;1036.08;9651.78;-9651.78;0.0000;0.0000;0.0000;0.0000;0.0000;0.0000;0.0000;
1910;1036.38;9648.94;-9648.94;0.0000;0.0000;0.0000;0.0000;0.0000;0.0000;0.0000;
1911;1036.69;9646.11;-9646.11;0.0000;0.0000;0.0000;0.0000;0.0000;0.0000;0.0000;
1912;1036.99;9643.28;-9643.28;0.0000;0.0000;0.0000;0.0000;0.0000;0.0000;0.0000;
1913;1037.30;9640.45;-9640.45;0.0000;0.0000;0.0000;0.0000;0.0000;0.0000;0.0000;
1914;1037.60;9637.62;-9637.62;0.0000;0.0000;0.0000;0.0000;0.0000;0.0000;0.0000;
1915;1037.90;9634.80;-9634.80;0.0000;0.0000;0.0000;0.0000;0.0000;0.0000;0.0000;
1916;1038.21;9631.97;-9631.97;0.0000;0.0000;0.0000;0.0000;0.0000;0.0000;0.0000;
1917;1038.51;9629.15;-9629.15;0.0000;0.0000;0.0000;0.0000;0.0000;0.0000;0.0000;
1918;1038.82;9626.34;-9626.34;0.0000;0.0000;0.0000;0.0000;0.0000;0.0000;0.0000;
1919;1039.12;9623.52;-9623.52;0.0000;0.0000;0.0000;0.0000;0.0000;0.0000;0.0000;
1920;1039.42;9620.71;-9620.71;0.0000;0.0000;0.0000;0.0000;0.0000;0.0000;0.0000;
1921;1039.73;9617.90;-9617.90;0.0000;0.0000;0.0000;0.0000;0.0000;0.0000;0.0000;
1922;1040.03;9615.09;-9615.09;0.0000;0.0000;0.0000;0.0000;0.0000;0.0000;0.0000;
1923;1040.34;9612.28;-9612.28;0.0000;0.0000;0.0000;0.0000;0.0000;0.0000;0.0000;
1924;1040.64;9609.48;-9609.48;0.0000;0.0000;0.0000;0.0000;0.0000;0.0000;0.0000;
1925;1040.94;9606.68;-9606.68;0.0000;0.0000;0.0000;0.0000;0.0000;0.0000;0.0000;
1926;1041.25;9603.88;-9603.88;0.0000;0.0000;0.0000;0.0000;0.0000;0.0000;0.0000;
1927;1041.55;9601.08;-9601.08;0.0000;0.0000;0.0000;0.0000;0.0000;0.0000;0.0000;
1928;1041.85;9598.29;-9598.29;0.0000;0.0000;0.0000;0.0000;0.0000;0.0000;0.0000;
1929;1042.16;9595.50;-9595.50;0.0000;0.0000;0.0000;0.0000;0.0000;0.0000;0.0000;
1930;1042.46;9592.71;-9592.71;0.0000;0.0000;0.0000;0.0000;0.0000;0.0000;0.0000;
1931;1042.76;9589.92;-9589.92;0.0000;0.0000;0.0000;0.0000;0.0000;0.0000;0.0000;
1932;1043.06;9587.14;-9587.14;0.0000;0.0000;0.0000;0.0000;0.0000;0.0000;0.0000;
1933;1043.37;9584.35;-9584.35;0.0000;0.0000;0.0000;0.0000;0.0000;0.0000;0.0000;
1934;1043.67;9581.57;-9581.57;0.0000;0.0000;0.0000;0.0000;0.0000;0.0000;0.0000;
1935;1043.97;9578.80;-9578.80;0.0000;0.0000;0.0000;0.0000;0.0000;0.0000;0.0000;
1936;1044.28;9576.02;-9576.02;0.0000;0.0000;0.0000;0.0000;0.0000;0.0000;0.0000;
1937;1044.58;9573.25;-9573.25;0.0000;0.0000;0.0000;0.0000;0.0000;0.0000;0.0000;
1938;1044.88;9570.48;-9570.48;0.0000;0.0000;0.0000;0.0000;0.0000;0.0000;0.0000;
1939;1045.18;9567.71;-9567.71;0.0000;0.0000;0.0000;0.0000;0.0000;0.0000;0.0000;
1940;1045.48;9564.94;-9564.94;0.0000;0.0000;0.0000;0.0000;0.0000;0.0000;0.0000;
1941;1045.79;9562.18;-9562.18;0.0000;0.0000;0.0000;0.0000;0.0000;0.0000;0.0000;
1942;1046.09;9559.42;-9559.42;0.0000;0.0000;0.0000;0.0000;0.0000;0.0000;0.0000;
1943;1046.39;9556.66;-9556.66;0.0000;0.0000;0.0000;0.0000;0.0000;0.0000;0.0000;
1944;1046.69;9553.90;-9553.90;0.0000;0.0000;0.0000;0.0000;0.0000;0.0000;0.0000;
1945;1046.99;9551.15;-9551.15;0.0000;0.0000;0.0000;0.0000;0.0000;0.0000;0.0000;
1946;1047.30;9548.40;-9548.40;0.0000;0.0000;0.0000;0.0000;0.0000;0.0000;0.0000;
1947;1047.60;9545.65;-9545.65;0.0000;0.0000;0.0000;0.0000;0.0000;0.0000;0.0000;
1948;1047.90;9542.90;-9542.90;0.0000;0.0000;0.0000;0.0000;0.0000;0.0000;0.0000;
1949;1048.20;9540.16;-9540.16;0.0000;0.0000;0.0000;0.0000;0.0000;0.0000;0.0000;
1950;1048.50;9537.41;-9537.41;0.0000;0.0000;0.0000;0.0000;0.0000;0.0000;0.0000;
1951;1048.80;9534.67;-9534.67;0.0000;0.0000;0.0000;0.0000;0.0000;0.0000;0.0000;
1952;1049.11;9531.93;-9531.93;0.0000;0.0000;0.0000;0.0000;0.0000;0.0000;0.0000;
1953;1049.41;9529.20;-9529.20;0.0000;0.0000;0.0000;0.0000;0.0000;0.0000;0.0000;
1954;1049.71;9526.47;-9526.47;0.0000;0.0000;0.0000;0.0000;0.0000;0.0000;0.0000;
1955;1050.01;9523.73;-9523.73;0.0000;0.0000;0.0000;0.0000;0.0000;0.0000;0.0000;
1956;   ;   ;   ;0.0000;0.0000;0.0000;0.0000;0.0000;0.0000;0.0000;
1957;   ;   ;   ;0.0000;0.0000;0.0000;0.0000;0.0000;0.0000;0.0000;
1958;   ;   ;   ;0.0000;0.0000;0.0000;0.0000;0.0000;0.0000;0.0000;
1959;   ;   ;   ;0.0000;0.0000;0.0000;0.0000;0.0000;0.0000;0.0000;
1960;   ;   ;   ;0.0000;0.0000;0.0000;0.0000;0.0000;0.0000;0.0000;
1961;   ;   ;   ;0.0000;0.0000;0.0000;0.0000;0.0000;0.0000;0.0000;
1962;   ;   ;   ;0.0000;0.0000;0.0000;0.0000;0.0000;0.0000;0.0000;
1963;   ;   ;   ;0.0000;0.0000;0.0000;0.0000;0.0000;0.0000;0.0000;
1964;   ;   ;   ;0.0000;0.0000;0.0000;0.0000;0.0000;0.0000;0.0000;
1965;   ;   ;   ;0.0000;0.0000;0.0000;0.0000;0.0000;0.0000;0.0000;
1966;   ;   ;   ;0.0000;0.0000;0.0000;0.0000;0.0000;0.0000;0.0000;
1967;   ;   ;   ;0.0000;0.0000;0.0000;0.0000;0.0000;0.0000;0.0000;
1968;   ;   ;   ;0.0000;0.0000;0.0000;0.0000;0.0000;0.0000;0.0000;
1969;   ;   ;   ;0.0000;0.0000;0.0000;0.0000;0.0000;0.0000;0.0000;
1970;   ;   ;   ;0.0000;0.0000;0.0000;0.0000;0.0000;0.0000;0.0000;
1971;   ;   ;   ;0.0000;0.0000;0.0000;0.0000;0.0000;0.0000;0.0000;
1972;   ;   ;   ;0.0000;0.0000;0.0000;0.0000;0.0000;0.0000;0.0000;
1973;   ;   ;   ;0.0000;0.0000;0.0000;0.0000;0.0000;0.0000;0.0000;
1974;   ;   ;   ;0.0000;0.0000;0.0000;0.0000;0.0000;0.0000;0.0000;
1975;   ;   ;   ;0.0000;0.0000;0.0000;0.0000;0.0000;0.0000;0.0000;
1976;   ;   ;   ;0.0000;0.0000;0.0000;0.0000;0.0000;0.0000;0.0000;
1977;   ;   ;   ;0.0000;0.0000;0.0000;0.0000;0.0000;0.0000;0.0000;
1978;   ;   ;   ;0.0000;0.0000;0.0000;0.0000;0.0000;0.0000;0.0000;
1979;   ;   ;   ;0.0000;0.0000;0.0000;0.0000;0.0000;0.0000;0.0000;
1980;   ;   ;   ;0.0000;0.0000;0.0000;0.0000;0.0000;0.0000;0.0000;
1981;   ;   ;   ;0.0000;0.0000;0.0000;0.0000;0.0000;0.0000;0.0000;
1982;   ;   ;   ;0.0000;0.0000;0.0000;0.0000;0.0000;0.0000;0.0000;
1983;   ;   ;   ;0.0000;0.0000;0.0000;0.0000;0.0000;0.0000;0.0000;
1984;   ;   ;   ;0.0000;0.0000;0.0000;0.0000;0.0000;0.0000;0.0000;
1985;   ;   ;   ;0.0000;0.0000;0.0000;0.0000;0.0000;0.0000;0.0000;
1986;   ;   ;   ;0.0000;0.0000;0.0000;0.0000;0.0000;0.0000;0.0000;
1987;   ;   ;   ;0.0000;0.0000;0.0000;0.0000;0.0000;0.0000;0.0000;
1988;   ;   ;   ;0.0000;0.0000;0.0000;0.0000;0.0000;0.0000;0.0000;
1989;   ;   ;   ;0.0000;0.0000;0.0000;0.0000;0.0000;0.0000;0.0000;
1990;   ;   ;   ;0.0000;0.0000;0.0000;0.0000;0.0000;0.0000;0.0000;
1991;   ;   ;   ;0.0000;0.0000;0.0000;0.0000;0.0000;0.0000;0.0000;
1992;   ;   ;   ;0.0000;0.0000;0.0000;0.0000;0.0000;0.0000;0.0000;
1993;   ;   ;   ;0.0000;0.0000;0.0000;0.0000;0.0000;0.0000;0.0000;
1994;   ;   ;   ;0.0000;0.0000;0.0000;0.0000;0.0000;0.0000;0.0000;
1995;   ;   ;   ;0.0000;0.0000;0.0000;0.0000;0.0000;0.0000;0.0000;
1996;   ;   ;   ;0.0000;0.0000;0.0000;0.0000;0.0000;0.0000;0.0000;
1997;   ;   ;   ;0.0000;0.0000;0.0000;0.0000;0.0000;0.0000;0.0000;
1998;   ;   ;   ;0.0000;0.0000;0.0000;0.0000;0.0000;0.0000;0.0000;
1999;   ;   ;   ;0.0000;0.0000;0.0000;0.0000;0.0000;0.0000;0.0000;
2000;   ;   ;   ;0.0000;0.0000;0.0000;0.0000;0.0000;0.0000;0.0000;
2001;   ;   ;   ;0.0000;0.0000;0.0000;0.0000;0.0000;0.0000;0.0000;
2002;   ;   ;   ;0.0000;0.0000;0.0000;0.0000;0.0000;0.0000;0.0000;
2003;   ;   ;   ;0.0000;0.0000;0.0000;0.0000;0.0000;0.0000;0.0000;
2004;   ;   ;   ;0.0000;0.0000;0.0000;0.0000;0.0000;0.0000;0.0000;
2005;   ;   ;   ;0.0000;0.0000;0.0000;0.0000;0.0000;0.0000;0.0000;
2006;   ;   ;   ;0.0000;0.0000;0.0000;0.0000;0.0000;0.0000;0.0000;
2007;   ;   ;   ;0.0000;0.0000;0.0000;0.0000;0.0000;0.0000;0.0000;
2008;   ;   ;   ;0.0000;0.0000;0.0000;0.0000;0.0000;0.0000;0.0000;
2009;   ;   ;   ;0.0000;0.0000;0.0000;0.0000;0.0000;0.0000;0.0000;
2010;   ;   ;   ;0.0000;0.0000;0.0000;0.0000;0.0000;0.0000;0.0000;
2011;   ;   ;   ;0.0000;0.0000;0.0000;0.0000;0.0000;0.0000;0.0000;
2012;   ;   ;   ;0.0000;0.0000;0.0000;0.0000;0.0000;0.0000;0.0000;
2013;   ;   ;   ;0.0000;0.0000;0.0000;0.0000;0.0000;0.0000;0.0000;
2014;   ;   ;   ;0.0000;0.0000;0.0000;0.0000;0.0000;0.0000;0.0000;
2015;   ;   ;   ;0.0000;0.0000;0.0000;0.0000;0.0000;0.0000;0.0000;
2016;   ;   ;   ;0.0000;0.0000;0.0000;0.0000;0.0000;0.0000;0.0000;
2017;   ;   ;   ;0.0000;0.0000;0.0000;0.0000;0.0000;0.0000;0.0000;
2018;   ;   ;   ;0.0000;0.0000;0.0000;0.0000;0.0000;0.0000;0.0000;
2019;   ;   ;   ;0.0000;0.0000;0.0000;0.0000;0.0000;0.0000;0.0000;
2020;   ;   ;   ;0.0000;0.0000;0.0000;0.0000;0.0000;0.0000;0.0000;
2021;   ;   ;   ;0.0000;0.0000;0.0000;0.0000;0.0000;0.0000;0.0000;
2022;   ;   ;   ;0.0000;0.0000;0.0000;0.0000;0.0000;0.0000;0.0000;
2023;   ;   ;   ;0.0000;0.0000;0.0000;0.0000;0.0000;0.0000;0.0000;
2024;   ;   ;   ;0.0000;0.0000;0.0000;0.0000;0.0000;0.0000;0.0000;
2025;   ;   ;   ;0.0000;0.0000;0.0000;0.0000;0.0000;0.0000;0.0000;
2026;   ;   ;   ;0.0000;0.0000;0.0000;0.0000;0.0000;0.0000;0.0000;
2027;   ;   ;   ;0.0000;0.0000;0.0000;0.0000;0.0000;0.0000;0.0000;
2028;   ;   ;   ;0.0000;0.0000;0.0000;0.0000;0.0000;0.0000;0.0000;
2029;   ;   ;   ;0.0000;0.0000;0.0000;0.0000;0.0000;0.0000;0.0000;
2030;   ;   ;   ;0.0000;0.0000;0.0000;0.0000;0.0000;0.0000;0.0000;
2031;   ;   ;   ;0.0000;0.0000;0.0000;0.0000;0.0000;0.0000;0.0000;
2032;   ;   ;   ;0.0000;0.0000;0.0000;0.0000;0.0000;0.0000;0.0000;
2033;   ;   ;   ;0.0000;0.0000;0.0000;0.0000;0.0000;0.0000;0.0000;
2034;   ;   ;   ;0.0000;0.0000;0.0000;0.0000;0.0000;0.0000;0.0000;
2035;   ;   ;   ;0.0000;0.0000;0.0000;0.0000;0.0000;0.0000;0.0000;
2036;   ;   ;   ;0.0000;0.0000;0.0000;0.0000;0.0000;0.0000;0.0000;
2037;   ;   ;   ;0.0000;0.0000;0.0000;0.0000;0.0000;0.0000;0.0000;
2038;   ;   ;   ;0.0000;0.0000;0.0000;0.0000;0.0000;0.0000;0.0000;
2039;   ;   ;   ;0.0000;0.0000;0.0000;0.0000;0.0000;0.0000;0.0000;
2040;   ;   ;   ;0.0000;0.0000;0.0000;0.0000;0.0000;0.0000;0.0000;
2041;   ;   ;   ;0.0000;0.0000;0.0000;0.0000;0.0000;0.0000;0.0000;
2042;   ;   ;   ;0.0000;0.0000;0.0000;0.0000;0.0000;0.0000;0.0000;
2043;   ;   ;   ;0.0000;0.0000;0.0000;0.0000;0.0000;0.0000;0.0000;
2044;   ;   ;   ;0.0000;0.0000;0.0000;0.0000;0.0000;0.0000;0.0000;
2045;   ;   ;   ;0.0000;0.0000;0.0000;0.0000;0.0000;0.0000;0.0000;
2046;   ;   ;   ;0.0000;0.0000;0.0000;0.0000;0.0000;0.0000;0.0000;
2047;   ;   ;   ;0.0000;0.0000;0.0000;0.0000;0.0000;0.0000;0.0000;
